Data from UWBM48344_Reflection_00015.txt Node
Date: Sun May 02 14:02:21 EDT 2021
User: vgr7
Spectrometer: USB2G7710
Scans to average: 10
Trigger mode: 4
Integration Time (sec): 1.000000E-1
Electric dark correction enabled: true
Boxcar width: 20
XAxis mode: Wavelengths
Number of Pixels in Spectrum: 2048
>>>>>Begin Spectral Data<<<<<
177.721	440.74
178.105	1262.96
178.488	445.68
178.871	318.52
179.254	179.88
179.636	104.21
180.019	90.62
180.402	65.93
180.785	57.05
181.168	61.38
181.55	46.02
181.933	45.79
182.316	45.03
182.698	47.18
183.081	35.86
183.463	36.21
183.846	38.31
184.228	38.06
184.611	35.24
184.993	33.72
185.376	36.88
185.758	32.38
186.14	31.18
186.522	25.92
186.904	25.15
187.287	25.81
187.669	27.03
188.051	25.67
188.433	23.43
188.815	21.62
189.197	22.44
189.579	21.78
189.961	20.88
190.342	20.78
190.724	22.5
191.106	23.21
191.488	21.64
191.869	20.71
192.251	19.21
192.633	17.78
193.014	15.68
193.396	11.97
193.777	12.69
194.159	14.1
194.54	12.86
194.922	12.49
195.303	12.33
195.684	10.41
196.065	10.96
196.447	11.16
196.828	8.37
197.209	8.91
197.59	5.87
197.971	4.78
198.352	3.82
198.733	8.16
199.114	7.67
199.495	7.3
199.876	7.42
200.257	8.07
200.638	7.48
201.018	6.78
201.399	10
201.78	9.79
202.16	9.56
202.541	9.75
202.922	10.88
203.302	10.21
203.683	10.43
204.063	10.88
204.444	11.47
204.824	11.22
205.204	9.01
205.585	8.88
205.965	8.77
206.345	7.16
206.725	8
207.106	7.45
207.486	8.46
207.866	9.23
208.246	8.39
208.626	8.35
209.006	9.63
209.386	8.63
209.766	8.1
210.145	8.63
210.525	7.76
210.905	7.47
211.285	7.1
211.664	8.6
212.044	8.62
212.424	9.89
212.803	9.29
213.183	10.37
213.562	11.66
213.942	12.03
214.321	8.8
214.701	9.35
215.08	9.28
215.459	8.92
215.838	8.12
216.218	8.34
216.597	7.62
216.976	7.16
217.355	7.67
217.734	8.37
218.113	8.77
218.492	7.5
218.871	7.37
219.25	8.07
219.629	7.63
220.008	7.36
220.387	6.5
220.766	8.05
221.144	8.3
221.523	8.51
221.902	9.07
222.28	9.29
222.659	9.43
223.037	8.53
223.416	8.91
223.794	9.08
224.173	9.69
224.551	9.33
224.929	10.21
225.308	9.86
225.686	9.52
226.064	10.14
226.442	10.37
226.821	10.86
227.199	10.24
227.577	10.27
227.955	10.13
228.333	10.23
228.711	10.22
229.089	9.39
229.467	9.11
229.845	9.05
230.222	8.76
230.6	8.39
230.978	8.22
231.356	8.27
231.733	8.17
232.111	7.95
232.488	7.74
232.866	7.5
233.243	7.44
233.621	7.39
233.998	7.39
234.376	7.28
234.753	7.05
235.13	6.95
235.508	6.93
235.885	6.89
236.262	6.78
236.639	6.68
237.016	6.68
237.393	6.62
237.77	6.51
238.147	6.5
238.524	6.51
238.901	6.4
239.278	6.43
239.655	6.47
240.032	6.45
240.409	6.37
240.785	6.36
241.162	6.31
241.539	6.19
241.915	6.22
242.292	6.21
242.668	6.23
243.045	6.17
243.421	6.15
243.798	6.17
244.174	6.18
244.551	6.19
244.927	6.18
245.303	6.22
245.679	6.23
246.056	6.21
246.432	6.21
246.808	6.19
247.184	6.2
247.56	6.25
247.936	6.22
248.312	6.23
248.688	6.19
249.064	6.17
249.44	6.17
249.815	6.13
250.191	6.09
250.567	6.1
250.943	6.06
251.318	6.01
251.694	5.98
252.069	5.98
252.445	5.95
252.82	5.94
253.196	5.94
253.571	5.91
253.947	5.89
254.322	5.87
254.697	5.85
255.073	5.81
255.448	5.78
255.823	5.74
256.198	5.72
256.573	5.7
256.948	5.7
257.323	5.66
257.698	5.61
258.073	5.58
258.448	5.57
258.823	5.56
259.198	5.52
259.573	5.51
259.948	5.5
260.322	5.48
260.697	5.46
261.072	5.45
261.446	5.44
261.821	5.41
262.195	5.39
262.57	5.37
262.944	5.34
263.319	5.35
263.693	5.32
264.067	5.32
264.442	5.32
264.816	5.29
265.19	5.31
265.564	5.33
265.938	5.31
266.313	5.3
266.687	5.31
267.061	5.31
267.435	5.3
267.809	5.3
268.183	5.27
268.556	5.25
268.93	5.25
269.304	5.25
269.678	5.24
270.051	5.21
270.425	5.19
270.799	5.2
271.172	5.21
271.546	5.21
271.919	5.22
272.293	5.21
272.666	5.21
273.04	5.23
273.413	5.25
273.787	5.25
274.16	5.26
274.533	5.26
274.906	5.27
275.279	5.27
275.653	5.28
276.026	5.28
276.399	5.28
276.772	5.28
277.145	5.28
277.518	5.28
277.891	5.29
278.263	5.27
278.636	5.29
279.009	5.28
279.382	5.3
279.755	5.29
280.127	5.31
280.5	5.32
280.872	5.33
281.245	5.33
281.617	5.33
281.99	5.33
282.362	5.33
282.735	5.34
283.107	5.33
283.479	5.33
283.852	5.35
284.224	5.35
284.596	5.35
284.968	5.36
285.34	5.37
285.713	5.39
286.085	5.39
286.457	5.42
286.829	5.41
287.201	5.42
287.572	5.44
287.944	5.46
288.316	5.45
288.688	5.44
289.06	5.45
289.431	5.45
289.803	5.46
290.175	5.46
290.546	5.48
290.918	5.49
291.289	5.5
291.661	5.51
292.032	5.5
292.403	5.53
292.775	5.55
293.146	5.58
293.517	5.61
293.889	5.6
294.26	5.64
294.631	5.67
295.002	5.69
295.373	5.69
295.744	5.69
296.115	5.71
296.486	5.75
296.857	5.78
297.228	5.81
297.599	5.85
297.97	5.86
298.34	5.87
298.711	5.91
299.082	5.93
299.452	5.96
299.823	5.97
300.194	5.98
300.564	6.02
300.935	6.02
301.305	6.05
301.676	6.06
302.046	6.08
302.416	6.12
302.787	6.12
303.157	6.14
303.527	6.17
303.897	6.2
304.267	6.24
304.637	6.27
305.008	6.28
305.378	6.31
305.748	6.35
306.117	6.37
306.487	6.4
306.857	6.43
307.227	6.49
307.597	6.53
307.967	6.55
308.336	6.56
308.706	6.57
309.076	6.58
309.445	6.61
309.815	6.61
310.184	6.63
310.554	6.65
310.923	6.7
311.293	6.72
311.662	6.72
312.031	6.75
312.401	6.76
312.77	6.78
313.139	6.8
313.508	6.85
313.877	6.88
314.246	6.89
314.616	6.92
314.985	6.94
315.353	6.98
315.722	6.98
316.091	7.03
316.46	7.04
316.829	7.07
317.198	7.12
317.567	7.14
317.935	7.17
318.304	7.19
318.672	7.22
319.041	7.25
319.41	7.27
319.778	7.31
320.147	7.35
320.515	7.39
320.883	7.38
321.252	7.42
321.62	7.44
321.988	7.46
322.357	7.48
322.725	7.49
323.093	7.51
323.461	7.53
323.829	7.57
324.197	7.61
324.565	7.62
324.933	7.65
325.301	7.66
325.669	7.69
326.037	7.69
326.405	7.72
326.772	7.72
327.14	7.74
327.508	7.75
327.875	7.76
328.243	7.77
328.61	7.77
328.978	7.77
329.346	7.78
329.713	7.79
330.08	7.81
330.448	7.81
330.815	7.81
331.182	7.81
331.55	7.83
331.917	7.83
332.284	7.82
332.651	7.83
333.018	7.86
333.385	7.88
333.752	7.9
334.119	7.91
334.486	7.93
334.853	7.95
335.22	7.95
335.587	7.96
335.954	7.97
336.32	7.98
336.687	7.98
337.054	7.99
337.42	8
337.787	8.01
338.153	8.02
338.52	8.03
338.886	8.03
339.253	8.03
339.619	8.05
339.986	8.05
340.352	8.06
340.718	8.07
341.084	8.08
341.451	8.08
341.817	8.09
342.183	8.09
342.549	8.1
342.915	8.1
343.281	8.12
343.647	8.12
344.013	8.11
344.379	8.12
344.745	8.12
345.11	8.11
345.476	8.13
345.842	8.14
346.208	8.16
346.573	8.14
346.939	8.15
347.304	8.16
347.67	8.16
348.035	8.15
348.401	8.14
348.766	8.15
349.132	8.16
349.497	8.15
349.862	8.15
350.228	8.16
350.593	8.15
350.958	8.15
351.323	8.15
351.688	8.15
352.053	8.15
352.418	8.15
352.783	8.14
353.148	8.13
353.513	8.14
353.878	8.12
354.243	8.11
354.608	8.1
354.972	8.1
355.337	8.09
355.702	8.08
356.066	8.07
356.431	8.05
356.795	8.03
357.16	8.02
357.524	8.01
357.889	8.01
358.253	7.99
358.618	7.98
358.982	7.97
359.346	7.97
359.71	7.95
360.075	7.95
360.439	7.93
360.803	7.92
361.167	7.9
361.531	7.89
361.895	7.87
362.259	7.85
362.623	7.83
362.987	7.81
363.351	7.8
363.714	7.77
364.078	7.75
364.442	7.73
364.806	7.71
365.169	7.68
365.533	7.67
365.896	7.65
366.26	7.63
366.623	7.6
366.987	7.57
367.35	7.55
367.714	7.53
368.077	7.51
368.44	7.47
368.803	7.45
369.167	7.42
369.53	7.38
369.893	7.35
370.256	7.31
370.619	7.27
370.982	7.24
371.345	7.22
371.708	7.19
372.071	7.16
372.434	7.13
372.797	7.09
373.159	7.06
373.522	7.03
373.885	7
374.247	6.96
374.61	6.92
374.973	6.88
375.335	6.84
375.698	6.81
376.06	6.77
376.423	6.74
376.785	6.71
377.147	6.68
377.51	6.65
377.872	6.62
378.234	6.58
378.596	6.55
378.958	6.51
379.321	6.48
379.683	6.45
380.045	6.42
380.407	6.39
380.769	6.36
381.13	6.33
381.492	6.29
381.854	6.27
382.216	6.24
382.578	6.21
382.939	6.19
383.301	6.16
383.663	6.14
384.024	6.1
384.386	6.08
384.747	6.05
385.109	6.03
385.47	6.01
385.832	5.97
386.193	5.95
386.554	5.92
386.916	5.9
387.277	5.87
387.638	5.84
387.999	5.82
388.36	5.8
388.721	5.78
389.082	5.76
389.443	5.75
389.804	5.72
390.165	5.71
390.526	5.69
390.887	5.67
391.248	5.65
391.609	5.63
391.969	5.62
392.33	5.6
392.691	5.58
393.051	5.56
393.412	5.55
393.772	5.53
394.133	5.51
394.493	5.49
394.854	5.47
395.214	5.45
395.574	5.43
395.935	5.42
396.295	5.4
396.655	5.38
397.015	5.36
397.376	5.35
397.736	5.32
398.096	5.31
398.456	5.29
398.816	5.28
399.176	5.26
399.535	5.25
399.895	5.24
400.255	5.22
400.615	5.21
400.975	5.2
401.334	5.18
401.694	5.17
402.054	5.16
402.413	5.15
402.773	5.14
403.132	5.13
403.492	5.12
403.851	5.1
404.211	5.1
404.57	5.09
404.929	5.08
405.288	5.07
405.648	5.06
406.007	5.05
406.366	5.04
406.725	5.03
407.084	5.03
407.443	5.02
407.802	5.02
408.161	5.01
408.52	5
408.879	5
409.238	4.99
409.596	4.99
409.955	4.98
410.314	4.98
410.673	4.97
411.031	4.97
411.39	4.97
411.748	4.97
412.107	4.97
412.465	4.97
412.824	4.99
413.182	5
413.54	5.02
413.899	5.05
414.257	5.08
414.615	5.11
414.974	5.14
415.332	5.18
415.69	5.22
416.048	5.25
416.406	5.29
416.764	5.32
417.122	5.35
417.48	5.38
417.838	5.41
418.195	5.43
418.553	5.46
418.911	5.47
419.269	5.47
419.626	5.46
419.984	5.45
420.342	5.43
420.699	5.41
421.057	5.39
421.414	5.36
421.772	5.34
422.129	5.33
422.486	5.32
422.844	5.31
423.201	5.3
423.558	5.29
423.915	5.29
424.273	5.29
424.63	5.28
424.987	5.28
425.344	5.27
425.701	5.27
426.058	5.27
426.415	5.26
426.772	5.25
427.128	5.25
427.485	5.23
427.842	5.21
428.199	5.2
428.555	5.17
428.912	5.15
429.269	5.11
429.625	5.08
429.982	5.05
430.338	5.01
430.695	4.98
431.051	4.94
431.407	4.91
431.764	4.89
432.12	4.87
432.476	4.85
432.832	4.84
433.189	4.84
433.545	4.84
433.901	4.86
434.257	4.88
434.613	4.91
434.969	4.94
435.325	4.97
435.681	5.01
436.036	5.04
436.392	5.07
436.748	5.08
437.104	5.1
437.459	5.12
437.815	5.14
438.171	5.17
438.526	5.2
438.882	5.23
439.237	5.27
439.593	5.31
439.948	5.35
440.304	5.39
440.659	5.42
441.014	5.44
441.369	5.47
441.725	5.49
442.08	5.52
442.435	5.53
442.79	5.54
443.145	5.54
443.5	5.54
443.855	5.54
444.21	5.53
444.565	5.53
444.92	5.51
445.275	5.51
445.629	5.49
445.984	5.48
446.339	5.46
446.693	5.45
447.048	5.42
447.403	5.4
447.757	5.37
448.112	5.35
448.466	5.32
448.82	5.29
449.175	5.26
449.529	5.23
449.883	5.21
450.238	5.17
450.592	5.16
450.946	5.15
451.3	5.14
451.654	5.15
452.008	5.15
452.362	5.15
452.716	5.15
453.07	5.15
453.424	5.14
453.778	5.13
454.132	5.11
454.486	5.1
454.839	5.08
455.193	5.06
455.547	5.04
455.9	5
456.254	4.98
456.607	4.95
456.961	4.91
457.314	4.89
457.668	4.87
458.021	4.87
458.375	4.86
458.728	4.86
459.081	4.86
459.434	4.87
459.787	4.88
460.141	4.89
460.494	4.9
460.847	4.91
461.2	4.92
461.553	4.93
461.906	4.93
462.259	4.94
462.611	4.94
462.964	4.95
463.317	4.96
463.67	4.97
464.022	4.98
464.375	4.99
464.728	4.99
465.08	4.99
465.433	5
465.785	5
466.138	4.98
466.49	4.97
466.843	4.95
467.195	4.92
467.547	4.9
467.899	4.88
468.252	4.85
468.604	4.82
468.956	4.8
469.308	4.79
469.66	4.79
470.012	4.78
470.364	4.79
470.716	4.8
471.068	4.82
471.42	4.84
471.772	4.87
472.123	4.88
472.475	4.9
472.827	4.91
473.178	4.93
473.53	4.94
473.882	4.96
474.233	4.98
474.585	5.03
474.936	5.1
475.288	5.21
475.639	5.35
475.99	5.5
476.342	5.68
476.693	5.86
477.044	6.06
477.395	6.25
477.746	6.45
478.097	6.65
478.448	6.86
478.8	7.06
479.15	7.24
479.501	7.42
479.852	7.57
480.203	7.72
480.554	7.87
480.905	8
481.255	8.13
481.606	8.26
481.957	8.37
482.307	8.49
482.658	8.59
483.009	8.69
483.359	8.78
483.709	8.88
484.06	8.97
484.41	9.05
484.761	9.13
485.111	9.22
485.461	9.29
485.811	9.37
486.162	9.43
486.512	9.49
486.862	9.54
487.212	9.56
487.562	9.58
487.912	9.6
488.262	9.6
488.612	9.59
488.961	9.57
489.311	9.52
489.661	9.44
490.011	9.34
490.36	9.21
490.71	9.07
491.06	8.92
491.409	8.75
491.759	8.58
492.108	8.41
492.458	8.22
492.807	8.03
493.157	7.84
493.506	7.67
493.855	7.5
494.204	7.34
494.554	7.19
494.903	7.05
495.252	6.92
495.601	6.79
495.95	6.67
496.299	6.55
496.648	6.44
496.997	6.35
497.346	6.26
497.695	6.17
498.043	6.09
498.392	6.01
498.741	5.93
499.09	5.87
499.438	5.81
499.787	5.75
500.135	5.69
500.484	5.65
500.832	5.62
501.181	5.61
501.529	5.61
501.878	5.63
502.226	5.66
502.574	5.69
502.923	5.73
503.271	5.77
503.619	5.81
503.967	5.85
504.315	5.9
504.663	5.94
505.011	5.99
505.359	6.04
505.707	6.09
506.055	6.15
506.403	6.2
506.751	6.26
507.098	6.33
507.446	6.4
507.794	6.47
508.141	6.54
508.489	6.63
508.837	6.72
509.184	6.81
509.531	6.9
509.879	7
510.226	7.1
510.574	7.21
510.921	7.33
511.268	7.44
511.616	7.56
511.963	7.69
512.31	7.82
512.657	7.95
513.004	8.08
513.351	8.21
513.698	8.32
514.045	8.43
514.392	8.53
514.739	8.63
515.086	8.72
515.432	8.81
515.779	8.9
516.126	9
516.473	9.1
516.819	9.21
517.166	9.34
517.512	9.48
517.859	9.63
518.205	9.8
518.552	9.98
518.898	10.17
519.245	10.4
519.591	10.68
519.937	11.01
520.283	11.39
520.629	11.82
520.976	12.27
521.322	12.73
521.668	13.21
522.014	13.7
522.36	14.18
522.706	14.66
523.052	15.13
523.398	15.57
523.743	15.97
524.089	16.34
524.435	16.69
524.781	17.03
525.126	17.36
525.472	17.69
525.817	18.02
526.163	18.33
526.509	18.64
526.854	18.95
527.199	19.25
527.545	19.56
527.89	19.88
528.235	20.2
528.581	20.5
528.926	20.79
529.271	21.06
529.616	21.32
529.961	21.58
530.306	21.83
530.651	22.05
530.996	22.26
531.341	22.45
531.686	22.64
532.031	22.8
532.376	22.99
532.721	23.2
533.065	23.44
533.41	23.68
533.755	23.9
534.099	24.1
534.444	24.27
534.788	24.42
535.133	24.56
535.477	24.69
535.822	24.79
536.166	24.87
536.51	24.91
536.855	24.91
537.199	24.88
537.543	24.85
537.887	24.85
538.231	24.88
538.576	24.91
538.92	24.93
539.264	24.94
539.608	24.94
539.951	24.92
540.295	24.9
540.639	24.87
540.983	24.82
541.327	24.76
541.671	24.69
542.014	24.64
542.358	24.6
542.701	24.62
543.045	24.69
543.389	24.78
543.732	24.88
544.075	25
544.419	25.12
544.762	25.26
545.105	25.4
545.449	25.56
545.792	25.73
546.135	25.89
546.478	26.03
546.821	26.12
547.165	26.18
547.508	26.2
547.851	26.19
548.194	26.14
548.536	26.06
548.879	25.95
549.222	25.83
549.565	25.71
549.908	25.58
550.25	25.48
550.593	25.42
550.936	25.42
551.278	25.46
551.621	25.52
551.963	25.61
552.306	25.71
552.648	25.83
552.991	25.97
553.333	26.13
553.675	26.32
554.017	26.53
554.36	26.76
554.702	27.02
555.044	27.3
555.386	27.63
555.728	27.98
556.07	28.28
556.412	28.59
556.754	28.85
557.096	29.07
557.438	29.28
557.78	29.49
558.121	29.71
558.463	29.93
558.805	30.16
559.147	30.37
559.488	30.59
559.83	30.81
560.171	31.03
560.513	31.24
560.854	31.45
561.196	31.66
561.537	31.86
561.878	32.06
562.22	32.26
562.561	32.45
562.902	32.65
563.243	32.85
563.584	33.04
563.925	33.23
564.266	33.42
564.607	33.61
564.948	33.79
565.289	33.99
565.63	34.17
565.971	34.34
566.312	34.52
566.653	34.69
566.993	34.86
567.334	35.03
567.675	35.19
568.015	35.35
568.356	35.5
568.696	35.64
569.037	35.79
569.377	35.93
569.718	36.07
570.058	36.21
570.398	36.34
570.739	36.46
571.079	36.59
571.419	36.7
571.759	36.83
572.099	36.95
572.439	37.06
572.779	37.17
573.119	37.28
573.459	37.39
573.799	37.5
574.139	37.61
574.479	37.71
574.819	37.82
575.158	37.93
575.498	38.03
575.838	38.13
576.177	38.23
576.517	38.33
576.856	38.42
577.196	38.51
577.535	38.6
577.875	38.71
578.214	38.8
578.553	38.89
578.893	38.99
579.232	39.07
579.571	39.17
579.91	39.26
580.25	39.35
580.589	39.46
580.928	39.55
581.267	39.65
581.606	39.74
581.945	39.85
582.283	39.94
582.622	40.04
582.961	40.14
583.3	40.24
583.639	40.34
583.977	40.43
584.316	40.54
584.654	40.63
584.993	40.73
585.332	40.83
585.67	40.92
586.008	41.02
586.347	41.12
586.685	41.21
587.024	41.29
587.362	41.38
587.7	41.48
588.038	41.57
588.376	41.67
588.715	41.77
589.053	41.87
589.391	41.98
589.729	42.08
590.067	42.18
590.404	42.26
590.742	42.35
591.08	42.45
591.418	42.54
591.756	42.62
592.093	42.71
592.431	42.77
592.769	42.84
593.106	42.92
593.444	42.99
593.781	43.05
594.119	43.12
594.456	43.17
594.793	43.24
595.131	43.31
595.468	43.37
595.805	43.44
596.143	43.51
596.48	43.59
596.817	43.66
597.154	43.75
597.491	43.83
597.828	43.91
598.165	43.98
598.502	44.05
598.839	44.11
599.176	44.17
599.512	44.23
599.849	44.29
600.186	44.34
600.523	44.4
600.859	44.46
601.196	44.52
601.532	44.58
601.869	44.64
602.205	44.69
602.542	44.74
602.878	44.78
603.215	44.83
603.551	44.87
603.887	44.92
604.223	44.97
604.56	45.02
604.896	45.06
605.232	45.09
605.568	45.14
605.904	45.18
606.24	45.21
606.576	45.25
606.912	45.28
607.248	45.32
607.583	45.35
607.919	45.39
608.255	45.42
608.591	45.44
608.926	45.48
609.262	45.51
609.597	45.54
609.933	45.57
610.268	45.6
610.604	45.62
610.939	45.64
611.275	45.65
611.61	45.67
611.945	45.71
612.281	45.73
612.616	45.76
612.951	45.8
613.286	45.82
613.621	45.85
613.956	45.89
614.291	45.91
614.626	45.93
614.961	45.95
615.296	45.97
615.631	45.99
615.966	46.01
616.3	46.05
616.635	46.07
616.97	46.09
617.304	46.11
617.639	46.13
617.973	46.16
618.308	46.18
618.642	46.22
618.977	46.24
619.311	46.27
619.646	46.31
619.98	46.35
620.314	46.39
620.648	46.43
620.983	46.46
621.317	46.51
621.651	46.55
621.985	46.58
622.319	46.61
622.653	46.65
622.987	46.68
623.321	46.7
623.655	46.73
623.988	46.76
624.322	46.78
624.656	46.8
624.99	46.83
625.323	46.85
625.657	46.86
625.99	46.89
626.324	46.91
626.657	46.92
626.991	46.94
627.324	46.95
627.658	46.98
627.991	47.01
628.324	47.03
628.657	47.07
628.991	47.1
629.324	47.12
629.657	47.15
629.99	47.16
630.323	47.18
630.656	47.2
630.989	47.22
631.322	47.24
631.655	47.25
631.987	47.29
632.32	47.3
632.653	47.32
632.986	47.33
633.318	47.34
633.651	47.35
633.984	47.36
634.316	47.36
634.649	47.37
634.981	47.38
635.313	47.38
635.646	47.4
635.978	47.42
636.31	47.42
636.643	47.44
636.975	47.45
637.307	47.46
637.639	47.47
637.971	47.49
638.303	47.49
638.635	47.51
638.967	47.53
639.299	47.56
639.631	47.59
639.963	47.61
640.295	47.64
640.626	47.67
640.958	47.7
641.29	47.72
641.621	47.74
641.953	47.75
642.285	47.77
642.616	47.79
642.948	47.8
643.279	47.82
643.61	47.84
643.942	47.85
644.273	47.87
644.604	47.89
644.936	47.9
645.267	47.93
645.598	47.94
645.929	47.96
646.26	47.99
646.591	48.02
646.922	48.04
647.253	48.06
647.584	48.1
647.915	48.13
648.245	48.16
648.576	48.19
648.907	48.22
649.238	48.24
649.568	48.23
649.899	48.24
650.229	48.28
650.56	48.29
650.89	48.32
651.221	48.33
651.551	48.36
651.882	48.39
652.212	48.4
652.542	48.43
652.872	48.44
653.203	48.46
653.533	48.48
653.863	48.49
654.193	48.51
654.523	48.54
654.853	48.56
655.183	48.56
655.513	48.57
655.843	48.59
656.172	48.59
656.502	48.61
656.832	48.63
657.162	48.66
657.491	48.67
657.821	48.69
658.15	48.72
658.48	48.74
658.809	48.76
659.139	48.77
659.468	48.78
659.798	48.8
660.127	48.81
660.456	48.82
660.785	48.83
661.115	48.85
661.444	48.87
661.773	48.88
662.102	48.9
662.431	48.9
662.76	48.92
663.089	48.97
663.418	48.99
663.747	49.01
664.076	49.04
664.404	49.06
664.733	49.08
665.062	49.1
665.39	49.13
665.719	49.15
666.048	49.19
666.376	49.22
666.705	49.23
667.033	49.23
667.362	49.25
667.69	49.29
668.018	49.32
668.347	49.34
668.675	49.37
669.003	49.41
669.331	49.43
669.659	49.46
669.987	49.47
670.315	49.5
670.643	49.52
670.971	49.54
