Data from UWBM41002_Reflection_00005.txt Node
Date: Sun May 02 14:13:48 EDT 2021
User: vgr7
Spectrometer: USB2G7710
Scans to average: 10
Trigger mode: 4
Integration Time (sec): 1.000000E-1
Electric dark correction enabled: true
Boxcar width: 20
XAxis mode: Wavelengths
Number of Pixels in Spectrum: 2048
>>>>>Begin Spectral Data<<<<<
177.721	103.13
178.105	87.35
178.488	84.08
178.871	86.23
179.254	80.01
179.636	65.13
180.019	51.69
180.402	30.59
180.785	24.89
181.168	22.75
181.55	22.61
181.933	23.19
182.316	19.74
182.698	16.71
183.081	12.81
183.463	9.12
183.846	5.42
184.228	8.85
184.611	9.25
184.993	10.15
185.376	9.96
185.758	10.81
186.14	10.7
186.522	5.4
186.904	5.49
187.287	5.26
187.669	5.98
188.051	6.01
188.433	8.19
188.815	4.82
189.197	7.4
189.579	8.7
189.961	9.89
190.342	8.95
190.724	8.37
191.106	7.72
191.488	6.9
191.869	6.22
192.251	5.22
192.633	5.63
193.014	4.88
193.396	2.74
193.777	1.86
194.159	2.35
194.54	0.81
194.922	-1.8
195.303	-3.6
195.684	-3.55
196.065	-2.91
196.447	-2.52
196.828	-3.58
197.209	-5.2
197.59	-7.9
197.971	-7.28
198.352	-4.76
198.733	-2.35
199.114	-1.75
199.495	-0.91
199.876	-2.5
200.257	-2.34
200.638	-4.29
201.018	-3.41
201.399	-3.17
201.78	-3.43
202.16	-2.16
202.541	-2.54
202.922	-3.21
203.302	-2.77
203.683	-3.11
204.063	-4
204.444	-4.01
204.824	-4.8
205.204	-7.22
205.585	-6.62
205.965	-5.89
206.345	-6.03
206.725	-5.02
207.106	-4.71
207.486	-6.24
207.866	-4.8
208.246	-6.73
208.626	-7.84
209.006	-6.35
209.386	-5.84
209.766	-5.81
210.145	-6.32
210.525	-5.4
210.905	-3.73
211.285	-5.07
211.664	-4.2
212.044	-4.01
212.424	-3.45
212.803	-2.03
213.183	-1.27
213.562	-0.92
213.942	-1.3
214.321	-2.83
214.701	-3.05
215.08	-2.6
215.459	-1.47
215.838	-3.58
216.218	-3.11
216.597	-3.18
216.976	-1.32
217.355	-0.79
217.734	-1
218.113	-0.19
218.492	-0.36
218.871	-0.41
219.25	0.08
219.629	0.03
220.008	0.34
220.387	-0.28
220.766	2.54
221.144	1.99
221.523	1.78
221.902	2.95
222.28	2.64
222.659	2.4
223.037	2.96
223.416	3.41
223.794	4.12
224.173	5.08
224.551	4.44
224.929	5.82
225.308	5.53
225.686	6.33
226.064	6.67
226.442	6.47
226.821	7.2
227.199	7.31
227.577	6.92
227.955	6.84
228.333	6.34
228.711	6.09
229.089	5.42
229.467	4.66
229.845	4.7
230.222	4.58
230.6	4.89
230.978	4.54
231.356	5.05
231.733	5.11
232.111	4.94
232.488	4.77
232.866	4.59
233.243	4.62
233.621	4.56
233.998	4.5
234.376	4.65
234.753	4.39
235.13	4.54
235.508	4.65
235.885	4.67
236.262	4.35
236.639	4.42
237.016	4.43
237.393	4.39
237.77	4.41
238.147	4.44
238.524	4.44
238.901	4.38
239.278	4.41
239.655	4.47
240.032	4.46
240.409	4.38
240.785	4.46
241.162	4.43
241.539	4.42
241.915	4.5
242.292	4.53
242.668	4.54
243.045	4.53
243.421	4.49
243.798	4.51
244.174	4.56
244.551	4.6
244.927	4.67
245.303	4.67
245.679	4.66
246.056	4.58
246.432	4.6
246.808	4.58
247.184	4.59
247.56	4.61
247.936	4.57
248.312	4.56
248.688	4.57
249.064	4.54
249.44	4.56
249.815	4.54
250.191	4.54
250.567	4.54
250.943	4.52
251.318	4.49
251.694	4.51
252.069	4.49
252.445	4.49
252.82	4.49
253.196	4.46
253.571	4.44
253.947	4.44
254.322	4.41
254.697	4.4
255.073	4.36
255.448	4.38
255.823	4.35
256.198	4.32
256.573	4.3
256.948	4.3
257.323	4.25
257.698	4.2
258.073	4.16
258.448	4.16
258.823	4.16
259.198	4.15
259.573	4.12
259.948	4.13
260.322	4.1
260.697	4.1
261.072	4.1
261.446	4.11
261.821	4.09
262.195	4.08
262.57	4.06
262.944	4.05
263.319	4.06
263.693	4.05
264.067	4.05
264.442	4.03
264.816	4
265.19	4
265.564	4.01
265.938	4
266.313	3.98
266.687	3.98
267.061	3.97
267.435	3.98
267.809	3.98
268.183	3.95
268.556	3.95
268.93	3.97
269.304	3.97
269.678	3.97
270.051	3.95
270.425	3.93
270.799	3.91
271.172	3.93
271.546	3.92
271.919	3.94
272.293	3.92
272.666	3.93
273.04	3.95
273.413	3.99
273.787	3.98
274.16	3.99
274.533	3.99
274.906	3.99
275.279	3.98
275.653	3.97
276.026	3.98
276.399	3.98
276.772	4
277.145	4.02
277.518	4.03
277.891	4.07
278.263	4.07
278.636	4.08
279.009	4.07
279.382	4.08
279.755	4.09
280.127	4.12
280.5	4.14
280.872	4.16
281.245	4.15
281.617	4.17
281.99	4.17
282.362	4.15
282.735	4.15
283.107	4.15
283.479	4.15
283.852	4.16
284.224	4.14
284.596	4.13
284.968	4.14
285.34	4.16
285.713	4.16
286.085	4.17
286.457	4.15
286.829	4.14
287.201	4.14
287.572	4.14
287.944	4.15
288.316	4.11
288.688	4.09
289.06	4.1
289.431	4.09
289.803	4.1
290.175	4.11
290.546	4.11
290.918	4.12
291.289	4.12
291.661	4.11
292.032	4.08
292.403	4.08
292.775	4.08
293.146	4.06
293.517	4.06
293.889	4.04
294.26	4.05
294.631	4.06
295.002	4.06
295.373	4.07
295.744	4.05
296.115	4.03
296.486	4.05
296.857	4.05
297.228	4.06
297.599	4.09
297.97	4.1
298.34	4.09
298.711	4.1
299.082	4.09
299.452	4.09
299.823	4.1
300.194	4.09
300.564	4.08
300.935	4.08
301.305	4.07
301.676	4.07
302.046	4.08
302.416	4.07
302.787	4.06
303.157	4.06
303.527	4.08
303.897	4.07
304.267	4.07
304.637	4.07
305.008	4.06
305.378	4.06
305.748	4.05
306.117	4.04
306.487	4.05
306.857	4.07
307.227	4.08
307.597	4.08
307.967	4.05
308.336	4.06
308.706	4.04
309.076	4.02
309.445	4.02
309.815	4.01
310.184	4
310.554	3.98
310.923	3.98
311.293	3.96
311.662	3.94
312.031	3.93
312.401	3.94
312.77	3.93
313.139	3.91
313.508	3.9
313.877	3.89
314.246	3.9
314.616	3.9
314.985	3.9
315.353	3.9
315.722	3.9
316.091	3.91
316.46	3.9
316.829	3.9
317.198	3.89
317.567	3.88
317.935	3.89
318.304	3.89
318.672	3.88
319.041	3.9
319.41	3.89
319.778	3.88
320.147	3.88
320.515	3.86
320.883	3.83
321.252	3.83
321.62	3.8
321.988	3.8
322.357	3.79
322.725	3.8
323.093	3.82
323.461	3.81
323.829	3.83
324.197	3.82
324.565	3.83
324.933	3.83
325.301	3.82
325.669	3.81
326.037	3.8
326.405	3.81
326.772	3.81
327.14	3.81
327.508	3.79
327.875	3.77
328.243	3.77
328.61	3.78
328.978	3.77
329.346	3.75
329.713	3.75
330.08	3.76
330.448	3.74
330.815	3.73
331.182	3.71
331.55	3.71
331.917	3.7
332.284	3.69
332.651	3.71
333.018	3.71
333.385	3.7
333.752	3.7
334.119	3.68
334.486	3.69
334.853	3.69
335.22	3.69
335.587	3.69
335.954	3.7
336.32	3.7
336.687	3.7
337.054	3.69
337.42	3.68
337.787	3.68
338.153	3.68
338.52	3.67
338.886	3.67
339.253	3.68
339.619	3.67
339.986	3.68
340.352	3.67
340.718	3.67
341.084	3.68
341.451	3.67
341.817	3.68
342.183	3.68
342.549	3.68
342.915	3.69
343.281	3.69
343.647	3.69
344.013	3.68
344.379	3.68
344.745	3.68
345.11	3.68
345.476	3.68
345.842	3.69
346.208	3.69
346.573	3.69
346.939	3.68
347.304	3.68
347.67	3.68
348.035	3.67
348.401	3.67
348.766	3.68
349.132	3.67
349.497	3.68
349.862	3.69
350.228	3.69
350.593	3.69
350.958	3.7
351.323	3.7
351.688	3.7
352.053	3.71
352.418	3.72
352.783	3.71
353.148	3.7
353.513	3.72
353.878	3.71
354.243	3.71
354.608	3.72
354.972	3.72
355.337	3.72
355.702	3.73
356.066	3.74
356.431	3.74
356.795	3.74
357.16	3.73
357.524	3.73
357.889	3.73
358.253	3.73
358.618	3.72
358.982	3.73
359.346	3.74
359.71	3.74
360.075	3.74
360.439	3.74
360.803	3.74
361.167	3.74
361.531	3.75
361.895	3.75
362.259	3.75
362.623	3.75
362.987	3.75
363.351	3.75
363.714	3.75
364.078	3.75
364.442	3.75
364.806	3.74
365.169	3.74
365.533	3.74
365.896	3.75
366.26	3.76
366.623	3.75
366.987	3.74
367.35	3.74
367.714	3.74
368.077	3.75
368.44	3.75
368.803	3.75
369.167	3.74
369.53	3.74
369.893	3.74
370.256	3.73
370.619	3.73
370.982	3.72
371.345	3.72
371.708	3.72
372.071	3.72
372.434	3.73
372.797	3.73
373.159	3.73
373.522	3.74
373.885	3.74
374.247	3.73
374.61	3.73
374.973	3.72
375.335	3.73
375.698	3.73
376.06	3.73
376.423	3.72
376.785	3.72
377.147	3.73
377.51	3.73
377.872	3.72
378.234	3.72
378.596	3.72
378.958	3.72
379.321	3.72
379.683	3.72
380.045	3.72
380.407	3.72
380.769	3.71
381.13	3.71
381.492	3.71
381.854	3.72
382.216	3.71
382.578	3.71
382.939	3.71
383.301	3.71
383.663	3.71
384.024	3.7
384.386	3.71
384.747	3.71
385.109	3.71
385.47	3.71
385.832	3.71
386.193	3.72
386.554	3.72
386.916	3.72
387.277	3.72
387.638	3.72
387.999	3.73
388.36	3.72
388.721	3.72
389.082	3.72
389.443	3.72
389.804	3.72
390.165	3.72
390.526	3.73
390.887	3.73
391.248	3.73
391.609	3.73
391.969	3.72
392.33	3.73
392.691	3.74
393.051	3.74
393.412	3.74
393.772	3.75
394.133	3.75
394.493	3.74
394.854	3.74
395.214	3.74
395.574	3.75
395.935	3.75
396.295	3.75
396.655	3.76
397.015	3.76
397.376	3.76
397.736	3.76
398.096	3.76
398.456	3.76
398.816	3.77
399.176	3.77
399.535	3.77
399.895	3.77
400.255	3.77
400.615	3.77
400.975	3.77
401.334	3.77
401.694	3.77
402.054	3.78
402.413	3.77
402.773	3.77
403.132	3.78
403.492	3.78
403.851	3.78
404.211	3.79
404.57	3.8
404.929	3.79
405.288	3.79
405.648	3.8
406.007	3.8
406.366	3.8
406.725	3.8
407.084	3.8
407.443	3.8
407.802	3.8
408.161	3.8
408.52	3.81
408.879	3.81
409.238	3.81
409.596	3.82
409.955	3.82
410.314	3.82
410.673	3.83
411.031	3.83
411.39	3.84
411.748	3.84
412.107	3.85
412.465	3.86
412.824	3.89
413.182	3.91
413.54	3.94
413.899	3.97
414.257	4
414.615	4.04
414.974	4.08
415.332	4.12
415.69	4.16
416.048	4.2
416.406	4.24
416.764	4.27
417.122	4.31
417.48	4.34
417.838	4.37
418.195	4.4
418.553	4.43
418.911	4.44
419.269	4.45
419.626	4.46
419.984	4.46
420.342	4.45
420.699	4.43
421.057	4.42
421.414	4.4
421.772	4.39
422.129	4.38
422.486	4.38
422.844	4.38
423.201	4.38
423.558	4.38
423.915	4.38
424.273	4.38
424.63	4.38
424.987	4.38
425.344	4.38
425.701	4.39
426.058	4.39
426.415	4.39
426.772	4.39
427.128	4.39
427.485	4.38
427.842	4.37
428.199	4.36
428.555	4.34
428.912	4.32
429.269	4.3
429.625	4.28
429.982	4.25
430.338	4.22
430.695	4.2
431.051	4.17
431.407	4.15
431.764	4.13
432.12	4.11
432.476	4.1
432.832	4.09
433.189	4.09
433.545	4.1
433.901	4.11
434.257	4.13
434.613	4.16
434.969	4.18
435.325	4.21
435.681	4.25
436.036	4.27
436.392	4.3
436.748	4.32
437.104	4.33
437.459	4.35
437.815	4.37
438.171	4.39
438.526	4.42
438.882	4.45
439.237	4.49
439.593	4.52
439.948	4.56
440.304	4.6
440.659	4.62
441.014	4.64
441.369	4.68
441.725	4.7
442.08	4.72
442.435	4.73
442.79	4.74
443.145	4.74
443.5	4.74
443.855	4.74
444.21	4.74
444.565	4.74
444.92	4.73
445.275	4.73
445.629	4.72
445.984	4.71
446.339	4.7
446.693	4.69
447.048	4.67
447.403	4.66
447.757	4.63
448.112	4.61
448.466	4.59
448.82	4.57
449.175	4.54
449.529	4.52
449.883	4.5
450.238	4.48
450.592	4.48
450.946	4.47
451.3	4.46
451.654	4.48
452.008	4.48
452.362	4.48
452.716	4.49
453.07	4.49
453.424	4.48
453.778	4.48
454.132	4.47
454.486	4.46
454.839	4.44
455.193	4.42
455.547	4.41
455.9	4.38
456.254	4.36
456.607	4.33
456.961	4.3
457.314	4.28
457.668	4.27
458.021	4.26
458.375	4.25
458.728	4.26
459.081	4.26
459.434	4.26
459.787	4.27
460.141	4.28
460.494	4.29
460.847	4.3
461.2	4.3
461.553	4.31
461.906	4.31
462.259	4.31
462.611	4.31
462.964	4.32
463.317	4.32
463.67	4.33
464.022	4.33
464.375	4.34
464.728	4.34
465.08	4.34
465.433	4.34
465.785	4.33
466.138	4.32
466.49	4.3
466.843	4.28
467.195	4.25
467.547	4.23
467.899	4.21
468.252	4.17
468.604	4.15
468.956	4.13
469.308	4.11
469.66	4.1
470.012	4.09
470.364	4.1
470.716	4.1
471.068	4.11
471.42	4.13
471.772	4.15
472.123	4.16
472.475	4.17
472.827	4.18
473.178	4.19
473.53	4.2
473.882	4.21
474.233	4.23
474.585	4.27
474.936	4.33
475.288	4.42
475.639	4.53
475.99	4.67
476.342	4.82
476.693	4.99
477.044	5.16
477.395	5.34
477.746	5.51
478.097	5.69
478.448	5.87
478.8	6.05
479.15	6.21
479.501	6.37
479.852	6.51
480.203	6.64
480.554	6.77
480.905	6.89
481.255	7.01
481.606	7.12
481.957	7.23
482.307	7.32
482.658	7.42
483.009	7.51
483.359	7.6
483.709	7.69
484.06	7.77
484.41	7.84
484.761	7.92
485.111	8
485.461	8.07
485.811	8.13
486.162	8.2
486.512	8.25
486.862	8.29
487.212	8.32
487.562	8.33
487.912	8.35
488.262	8.35
488.612	8.35
488.961	8.33
489.311	8.28
489.661	8.21
490.011	8.12
490.36	8.01
490.71	7.88
491.06	7.75
491.409	7.6
491.759	7.44
492.108	7.29
492.458	7.12
492.807	6.95
493.157	6.78
493.506	6.61
493.855	6.46
494.204	6.31
494.554	6.16
494.903	6.03
495.252	5.91
495.601	5.78
495.95	5.67
496.299	5.55
496.648	5.45
496.997	5.35
497.346	5.25
497.695	5.16
498.043	5.07
498.392	4.98
498.741	4.89
499.09	4.81
499.438	4.73
499.787	4.66
500.135	4.59
500.484	4.53
500.832	4.47
501.181	4.43
501.529	4.41
501.878	4.39
502.226	4.38
502.574	4.37
502.923	4.36
503.271	4.36
503.619	4.36
503.967	4.36
504.315	4.35
504.663	4.35
505.011	4.34
505.359	4.33
505.707	4.33
506.055	4.32
506.403	4.32
506.751	4.32
507.098	4.32
507.446	4.32
507.794	4.33
508.141	4.34
508.489	4.35
508.837	4.36
509.184	4.37
509.531	4.38
509.879	4.39
510.226	4.41
510.574	4.42
510.921	4.44
511.268	4.45
511.616	4.47
511.963	4.49
512.31	4.51
512.657	4.53
513.004	4.55
513.351	4.57
513.698	4.58
514.045	4.59
514.392	4.59
514.739	4.59
515.086	4.59
515.432	4.58
515.779	4.58
516.126	4.57
516.473	4.57
516.819	4.57
517.166	4.57
517.512	4.58
517.859	4.59
518.205	4.6
518.552	4.63
518.898	4.66
519.245	4.69
519.591	4.75
519.937	4.82
520.283	4.91
520.629	5.01
520.976	5.13
521.322	5.24
521.668	5.37
522.014	5.49
522.36	5.61
522.706	5.73
523.052	5.85
523.398	5.95
523.743	6.04
524.089	6.12
524.435	6.19
524.781	6.26
525.126	6.32
525.472	6.38
525.817	6.43
526.163	6.48
526.509	6.52
526.854	6.57
527.199	6.61
527.545	6.66
527.89	6.71
528.235	6.75
528.581	6.8
528.926	6.85
529.271	6.88
529.616	6.92
529.961	6.95
530.306	6.98
530.651	7.01
530.996	7.02
531.341	7.03
531.686	7.04
532.031	7.04
532.376	7.05
532.721	7.05
533.065	7.05
533.41	7.06
533.755	7.06
534.099	7.04
534.444	7.01
534.788	6.98
535.133	6.94
535.477	6.89
535.822	6.84
536.166	6.77
536.51	6.71
536.855	6.63
537.199	6.55
537.543	6.47
537.887	6.4
538.231	6.34
538.576	6.28
538.92	6.22
539.264	6.16
539.608	6.1
539.951	6.04
540.295	5.97
540.639	5.91
540.983	5.85
541.327	5.78
541.671	5.71
542.014	5.64
542.358	5.58
542.701	5.54
543.045	5.5
543.389	5.47
543.732	5.45
544.075	5.44
544.419	5.42
544.762	5.4
545.105	5.39
545.449	5.38
545.792	5.37
546.135	5.35
546.478	5.34
546.821	5.32
547.165	5.28
547.508	5.24
547.851	5.19
548.194	5.14
548.536	5.08
548.879	5.01
549.222	4.94
549.565	4.87
549.908	4.79
550.25	4.73
550.593	4.67
550.936	4.62
551.278	4.58
551.621	4.54
551.963	4.51
552.306	4.48
552.648	4.46
552.991	4.44
553.333	4.43
553.675	4.42
554.017	4.41
554.36	4.41
554.702	4.41
555.044	4.42
555.386	4.43
555.728	4.44
556.07	4.46
556.412	4.47
556.754	4.48
557.096	4.48
557.438	4.48
557.78	4.48
558.121	4.48
558.463	4.48
558.805	4.48
559.147	4.48
559.488	4.48
559.83	4.48
560.171	4.48
560.513	4.48
560.854	4.48
561.196	4.48
561.537	4.49
561.878	4.49
562.22	4.48
562.561	4.49
562.902	4.48
563.243	4.48
563.584	4.48
563.925	4.48
564.266	4.48
564.607	4.48
564.948	4.48
565.289	4.48
565.63	4.49
565.971	4.5
566.312	4.5
566.653	4.5
566.993	4.51
567.334	4.51
567.675	4.51
568.015	4.52
568.356	4.52
568.696	4.52
569.037	4.52
569.377	4.52
569.718	4.53
570.058	4.53
570.398	4.53
570.739	4.53
571.079	4.53
571.419	4.53
571.759	4.53
572.099	4.53
572.439	4.54
572.779	4.53
573.119	4.53
573.459	4.53
573.799	4.53
574.139	4.53
574.479	4.54
574.819	4.54
575.158	4.54
575.498	4.53
575.838	4.54
576.177	4.54
576.517	4.54
576.856	4.54
577.196	4.54
577.535	4.54
577.875	4.54
578.214	4.54
578.553	4.54
578.893	4.54
579.232	4.54
579.571	4.54
579.91	4.54
580.25	4.53
580.589	4.53
580.928	4.52
581.267	4.52
581.606	4.52
581.945	4.52
582.283	4.51
582.622	4.51
582.961	4.51
583.3	4.51
583.639	4.5
583.977	4.5
584.316	4.5
584.654	4.5
584.993	4.5
585.332	4.5
585.67	4.5
586.008	4.49
586.347	4.49
586.685	4.5
587.024	4.5
587.362	4.5
587.7	4.5
588.038	4.5
588.376	4.49
588.715	4.49
589.053	4.49
589.391	4.49
589.729	4.5
590.067	4.49
590.404	4.5
590.742	4.5
591.08	4.5
591.418	4.5
591.756	4.5
592.093	4.5
592.431	4.5
592.769	4.51
593.106	4.51
593.444	4.51
593.781	4.51
594.119	4.52
594.456	4.52
594.793	4.52
595.131	4.52
595.468	4.51
595.805	4.51
596.143	4.51
596.48	4.51
596.817	4.51
597.154	4.51
597.491	4.52
597.828	4.52
598.165	4.52
598.502	4.53
598.839	4.53
599.176	4.53
599.512	4.53
599.849	4.54
600.186	4.54
600.523	4.54
600.859	4.54
601.196	4.54
601.532	4.55
601.869	4.55
602.205	4.55
602.542	4.56
602.878	4.56
603.215	4.56
603.551	4.56
603.887	4.56
604.223	4.56
604.56	4.56
604.896	4.56
605.232	4.56
605.568	4.56
605.904	4.56
606.24	4.56
606.576	4.56
606.912	4.56
607.248	4.55
607.583	4.55
607.919	4.55
608.255	4.54
608.591	4.55
608.926	4.55
609.262	4.55
609.597	4.55
609.933	4.56
610.268	4.56
610.604	4.56
610.939	4.56
611.275	4.56
611.61	4.56
611.945	4.56
612.281	4.56
612.616	4.56
612.951	4.56
613.286	4.56
613.621	4.55
613.956	4.55
614.291	4.55
614.626	4.55
614.961	4.55
615.296	4.56
615.631	4.56
615.966	4.56
616.3	4.56
616.635	4.55
616.97	4.55
617.304	4.54
617.639	4.54
617.973	4.54
618.308	4.54
618.642	4.54
618.977	4.55
619.311	4.55
619.646	4.56
619.98	4.56
620.314	4.55
620.648	4.56
620.983	4.56
621.317	4.57
621.651	4.58
621.985	4.58
622.319	4.58
622.653	4.58
622.987	4.58
623.321	4.58
623.655	4.58
623.988	4.58
624.322	4.58
624.656	4.59
624.99	4.59
625.323	4.6
625.657	4.59
625.99	4.59
626.324	4.59
626.657	4.59
626.991	4.59
627.324	4.59
627.658	4.59
627.991	4.59
628.324	4.59
628.657	4.59
628.991	4.59
629.324	4.6
629.657	4.59
629.99	4.6
630.323	4.61
630.656	4.61
630.989	4.61
631.322	4.61
631.655	4.61
631.987	4.61
632.32	4.61
632.653	4.61
632.986	4.62
633.318	4.61
633.651	4.62
633.984	4.62
634.316	4.62
634.649	4.62
634.981	4.62
635.313	4.62
635.646	4.62
635.978	4.63
636.31	4.63
636.643	4.63
636.975	4.63
637.307	4.64
637.639	4.64
637.971	4.64
638.303	4.63
638.635	4.64
638.967	4.64
639.299	4.64
639.631	4.64
639.963	4.65
640.295	4.65
640.626	4.66
640.958	4.67
641.29	4.68
641.621	4.68
641.953	4.68
642.285	4.69
642.616	4.69
642.948	4.68
643.279	4.69
643.61	4.69
643.942	4.69
644.273	4.69
644.604	4.7
644.936	4.7
645.267	4.7
645.598	4.7
645.929	4.7
646.26	4.71
646.591	4.72
646.922	4.71
647.253	4.71
647.584	4.71
647.915	4.72
648.245	4.71
648.576	4.72
648.907	4.72
649.238	4.71
649.568	4.71
649.899	4.71
650.229	4.71
650.56	4.72
650.89	4.71
651.221	4.71
651.551	4.71
651.882	4.71
652.212	4.72
652.542	4.72
652.872	4.72
653.203	4.73
653.533	4.72
653.863	4.72
654.193	4.73
654.523	4.73
654.853	4.73
655.183	4.73
655.513	4.73
655.843	4.73
656.172	4.74
656.502	4.74
656.832	4.73
657.162	4.73
657.491	4.74
657.821	4.74
658.15	4.74
658.48	4.74
658.809	4.74
659.139	4.74
659.468	4.75
659.798	4.75
660.127	4.75
660.456	4.76
660.785	4.76
661.115	4.77
661.444	4.78
661.773	4.78
662.102	4.78
662.431	4.79
662.76	4.8
663.089	4.8
663.418	4.82
663.747	4.83
664.076	4.84
664.404	4.84
664.733	4.85
665.062	4.86
665.39	4.87
665.719	4.87
666.048	4.87
666.376	4.87
666.705	4.89
667.033	4.9
667.362	4.9
667.69	4.89
668.018	4.89
668.347	4.9
668.675	4.9
669.003	4.92
669.331	4.93
669.659	4.93
669.987	4.93
670.315	4.94
670.643	4.95
670.971	4.94
671.299	4.95
671.627	4.95
671.955	4.96
672.283	4.96
672.61	4.96
672.938	4.95
673.266	4.96
673.593	4.96
673.921	4.95
674.249	4.96
674.576	4.96
674.904	4.96
675.231	4.96
675.558	4.96
675.886	4.97
676.213	4.97
676.54	4.96
676.867	4.96
677.195	4.95
677.522	4.95
677.849	4.96
678.176	4.96
678.503	4.95
678.83	4.96
679.157	4.96
679.484	4.97
679.81	4.97
680.137	4.97
680.464	4.97
680.791	4.97
681.117	4.98
681.444	4.98
681.771	4.98
