Data from UWBM109429_Reflection_00005.txt Node
Date: Sun May 02 13:53:58 EDT 2021
User: vgr7
Spectrometer: USB2G7710
Scans to average: 10
Trigger mode: 4
Integration Time (sec): 1.000000E-1
Electric dark correction enabled: true
Boxcar width: 20
XAxis mode: Wavelengths
Number of Pixels in Spectrum: 2048
>>>>>Begin Spectral Data<<<<<
177.721	114.46
178.105	97.36
178.488	74.23
178.871	81.57
179.254	80.72
179.636	64.85
180.019	54.18
180.402	41.76
180.785	40.94
181.168	44.98
181.55	38.89
181.933	37.26
182.316	32.12
182.698	33.49
183.081	28.54
183.463	26.99
183.846	25.61
184.228	27.75
184.611	26.04
184.993	25.52
185.376	26.44
185.758	27.42
186.14	27.83
186.522	27.24
186.904	22.54
187.287	22.55
187.669	23.4
188.051	21.94
188.433	20.68
188.815	16.56
189.197	19.66
189.579	20.66
189.961	18.18
190.342	13.79
190.724	15.65
191.106	15.43
191.488	16.15
191.869	14.88
192.251	13.19
192.633	11.04
193.014	9.19
193.396	4.87
193.777	6.37
194.159	6.76
194.54	4.7
194.922	2.21
195.303	1.1
195.684	-0.52
196.065	-0.07
196.447	1.25
196.828	-1.1
197.209	-1.64
197.59	-4.09
197.971	-2.25
198.352	-2.47
198.733	0.15
199.114	0.81
199.495	2.07
199.876	0.5
200.257	0.5
200.638	-0.22
201.018	1.45
201.399	2.14
201.78	0.57
202.16	-0.71
202.541	-0.14
202.922	-0.42
203.302	0.69
203.683	2.38
204.063	3
204.444	2.84
204.824	1.7
205.204	0.81
205.585	2.92
205.965	5.47
206.345	4.43
206.725	5.16
207.106	4.77
207.486	4.38
207.866	4.74
208.246	5.1
208.626	3.89
209.006	5.41
209.386	5.47
209.766	4.57
210.145	4.16
210.525	4.96
210.905	6.62
211.285	6.37
211.664	7.59
212.044	5.02
212.424	4.66
212.803	4.24
213.183	4.45
213.562	3.83
213.942	2.67
214.321	1.61
214.701	0.72
215.08	1.02
215.459	1.43
215.838	1.18
216.218	1.11
216.597	-0.12
216.976	-0.23
217.355	0.91
217.734	0.67
218.113	1.46
218.492	0.22
218.871	-0.78
219.25	-0.17
219.629	-0.37
220.008	0.63
220.387	0.1
220.766	1.79
221.144	0.84
221.523	0.95
221.902	1.15
222.28	1.31
222.659	1.88
223.037	1.81
223.416	2.68
223.794	3.14
224.173	3.42
224.551	3.19
224.929	3.69
225.308	3.96
225.686	4.93
226.064	5.13
226.442	5.08
226.821	5.79
227.199	5.77
227.577	6.44
227.955	6.32
228.333	6.8
228.711	6.51
229.089	6.04
229.467	5.87
229.845	6.09
230.222	6.21
230.6	6.2
230.978	6.24
231.356	6.53
231.733	6.67
232.111	6.26
232.488	6.24
232.866	6.05
233.243	6.11
233.621	5.99
233.998	6.02
234.376	6.01
234.753	5.74
235.13	5.65
235.508	5.67
235.885	5.78
236.262	5.68
236.639	5.61
237.016	5.43
237.393	5.49
237.77	5.55
238.147	5.51
238.524	5.44
238.901	5.33
239.278	5.31
239.655	5.36
240.032	5.4
240.409	5.36
240.785	5.43
241.162	5.44
241.539	5.44
241.915	5.46
242.292	5.45
242.668	5.45
243.045	5.43
243.421	5.45
243.798	5.43
244.174	5.49
244.551	5.5
244.927	5.55
245.303	5.54
245.679	5.54
246.056	5.49
246.432	5.45
246.808	5.41
247.184	5.41
247.56	5.44
247.936	5.43
248.312	5.41
248.688	5.42
249.064	5.41
249.44	5.4
249.815	5.39
250.191	5.36
250.567	5.39
250.943	5.37
251.318	5.33
251.694	5.33
252.069	5.3
252.445	5.32
252.82	5.29
253.196	5.26
253.571	5.24
253.947	5.26
254.322	5.22
254.697	5.23
255.073	5.21
255.448	5.22
255.823	5.19
256.198	5.17
256.573	5.12
256.948	5.12
257.323	5.09
257.698	5.06
258.073	5.03
258.448	5.01
258.823	4.99
259.198	4.98
259.573	4.95
259.948	4.95
260.322	4.91
260.697	4.88
261.072	4.86
261.446	4.85
261.821	4.85
262.195	4.84
262.57	4.81
262.944	4.81
263.319	4.81
263.693	4.81
264.067	4.8
264.442	4.8
264.816	4.79
265.19	4.79
265.564	4.82
265.938	4.79
266.313	4.78
266.687	4.78
267.061	4.78
267.435	4.8
267.809	4.78
268.183	4.77
268.556	4.77
268.93	4.76
269.304	4.75
269.678	4.75
270.051	4.72
270.425	4.71
270.799	4.67
271.172	4.7
271.546	4.69
271.919	4.69
272.293	4.68
272.666	4.67
273.04	4.68
273.413	4.71
273.787	4.72
274.16	4.74
274.533	4.75
274.906	4.77
275.279	4.75
275.653	4.76
276.026	4.77
276.399	4.79
276.772	4.81
277.145	4.8
277.518	4.8
277.891	4.82
278.263	4.8
278.636	4.81
279.009	4.8
279.382	4.8
279.755	4.79
280.127	4.8
280.5	4.81
280.872	4.81
281.245	4.82
281.617	4.82
281.99	4.82
282.362	4.81
282.735	4.82
283.107	4.83
283.479	4.82
283.852	4.84
284.224	4.84
284.596	4.84
284.968	4.86
285.34	4.86
285.713	4.88
286.085	4.9
286.457	4.89
286.829	4.89
287.201	4.9
287.572	4.89
287.944	4.89
288.316	4.88
288.688	4.87
289.06	4.88
289.431	4.87
289.803	4.86
290.175	4.87
290.546	4.88
290.918	4.89
291.289	4.89
291.661	4.89
292.032	4.87
292.403	4.88
292.775	4.89
293.146	4.89
293.517	4.9
293.889	4.89
294.26	4.9
294.631	4.9
295.002	4.92
295.373	4.92
295.744	4.92
296.115	4.93
296.486	4.96
296.857	4.97
297.228	4.96
297.599	4.98
297.97	4.97
298.34	4.96
298.711	4.97
299.082	4.96
299.452	4.97
299.823	4.96
300.194	4.95
300.564	4.96
300.935	4.96
301.305	4.97
301.676	4.96
302.046	4.97
302.416	4.97
302.787	4.98
303.157	4.96
303.527	4.97
303.897	4.95
304.267	4.94
304.637	4.94
305.008	4.94
305.378	4.91
305.748	4.91
306.117	4.9
306.487	4.91
306.857	4.9
307.227	4.89
307.597	4.9
307.967	4.9
308.336	4.89
308.706	4.88
309.076	4.88
309.445	4.88
309.815	4.87
310.184	4.85
310.554	4.84
310.923	4.85
311.293	4.82
311.662	4.8
312.031	4.79
312.401	4.81
312.77	4.8
313.139	4.79
313.508	4.79
313.877	4.79
314.246	4.78
314.616	4.78
314.985	4.78
315.353	4.79
315.722	4.76
316.091	4.75
316.46	4.74
316.829	4.73
317.198	4.72
317.567	4.72
317.935	4.71
318.304	4.7
318.672	4.69
319.041	4.69
319.41	4.68
319.778	4.67
320.147	4.67
320.515	4.67
320.883	4.64
321.252	4.65
321.62	4.64
321.988	4.64
322.357	4.65
322.725	4.63
323.093	4.63
323.461	4.62
323.829	4.64
324.197	4.63
324.565	4.62
324.933	4.63
325.301	4.62
325.669	4.63
326.037	4.62
326.405	4.63
326.772	4.61
327.14	4.61
327.508	4.58
327.875	4.57
328.243	4.56
328.61	4.55
328.978	4.54
329.346	4.53
329.713	4.54
330.08	4.54
330.448	4.52
330.815	4.52
331.182	4.5
331.55	4.48
331.917	4.47
332.284	4.45
332.651	4.44
333.018	4.44
333.385	4.43
333.752	4.42
334.119	4.42
334.486	4.42
334.853	4.41
335.22	4.4
335.587	4.4
335.954	4.4
336.32	4.38
336.687	4.37
337.054	4.36
337.42	4.36
337.787	4.37
338.153	4.37
338.52	4.35
338.886	4.33
339.253	4.33
339.619	4.34
339.986	4.34
340.352	4.34
340.718	4.33
341.084	4.32
341.451	4.31
341.817	4.32
342.183	4.32
342.549	4.33
342.915	4.33
343.281	4.34
343.647	4.35
344.013	4.35
344.379	4.35
344.745	4.35
345.11	4.35
345.476	4.36
345.842	4.37
346.208	4.37
346.573	4.38
346.939	4.38
347.304	4.4
347.67	4.39
348.035	4.4
348.401	4.41
348.766	4.42
349.132	4.43
349.497	4.44
349.862	4.45
350.228	4.46
350.593	4.46
350.958	4.46
351.323	4.48
351.688	4.48
352.053	4.48
352.418	4.48
352.783	4.47
353.148	4.46
353.513	4.48
353.878	4.48
354.243	4.48
354.608	4.48
354.972	4.49
355.337	4.49
355.702	4.49
356.066	4.49
356.431	4.5
356.795	4.49
357.16	4.48
357.524	4.48
357.889	4.49
358.253	4.49
358.618	4.48
358.982	4.48
359.346	4.48
359.71	4.47
360.075	4.48
360.439	4.47
360.803	4.47
361.167	4.47
361.531	4.47
361.895	4.47
362.259	4.47
362.623	4.47
362.987	4.46
363.351	4.46
363.714	4.46
364.078	4.45
364.442	4.45
364.806	4.45
365.169	4.46
365.533	4.46
365.896	4.46
366.26	4.45
366.623	4.45
366.987	4.45
367.35	4.45
367.714	4.46
368.077	4.47
368.44	4.48
368.803	4.49
369.167	4.49
369.53	4.49
369.893	4.49
370.256	4.49
370.619	4.49
370.982	4.5
371.345	4.51
371.708	4.52
372.071	4.53
372.434	4.53
372.797	4.53
373.159	4.54
373.522	4.55
373.885	4.56
374.247	4.56
374.61	4.56
374.973	4.57
375.335	4.58
375.698	4.58
376.06	4.59
376.423	4.59
376.785	4.59
377.147	4.59
377.51	4.61
377.872	4.61
378.234	4.61
378.596	4.62
378.958	4.62
379.321	4.62
379.683	4.63
380.045	4.63
380.407	4.63
380.769	4.64
381.13	4.65
381.492	4.65
381.854	4.66
382.216	4.65
382.578	4.65
382.939	4.65
383.301	4.65
383.663	4.65
384.024	4.65
384.386	4.66
384.747	4.66
385.109	4.66
385.47	4.67
385.832	4.66
386.193	4.67
386.554	4.67
386.916	4.67
387.277	4.66
387.638	4.67
387.999	4.67
388.36	4.67
388.721	4.67
389.082	4.67
389.443	4.68
389.804	4.68
390.165	4.68
390.526	4.68
390.887	4.68
391.248	4.68
391.609	4.69
391.969	4.69
392.33	4.69
392.691	4.7
393.051	4.7
393.412	4.71
393.772	4.71
394.133	4.71
394.493	4.71
394.854	4.71
395.214	4.71
395.574	4.71
395.935	4.71
396.295	4.72
396.655	4.72
397.015	4.73
397.376	4.74
397.736	4.74
398.096	4.75
398.456	4.75
398.816	4.76
399.176	4.76
399.535	4.77
399.895	4.77
400.255	4.78
400.615	4.78
400.975	4.79
401.334	4.79
401.694	4.8
402.054	4.81
402.413	4.81
402.773	4.81
403.132	4.81
403.492	4.82
403.851	4.82
404.211	4.83
404.57	4.84
404.929	4.85
405.288	4.85
405.648	4.85
406.007	4.86
406.366	4.86
406.725	4.86
407.084	4.87
407.443	4.88
407.802	4.88
408.161	4.88
408.52	4.89
408.879	4.9
409.238	4.9
409.596	4.91
409.955	4.92
410.314	4.92
410.673	4.93
411.031	4.94
411.39	4.95
411.748	4.96
412.107	4.97
412.465	4.99
412.824	5.02
413.182	5.05
413.54	5.08
413.899	5.12
414.257	5.16
414.615	5.22
414.974	5.26
415.332	5.31
415.69	5.36
416.048	5.4
416.406	5.45
416.764	5.49
417.122	5.53
417.48	5.58
417.838	5.62
418.195	5.65
418.553	5.69
418.911	5.71
419.269	5.72
419.626	5.72
419.984	5.72
420.342	5.71
420.699	5.69
421.057	5.67
421.414	5.65
421.772	5.64
422.129	5.63
422.486	5.63
422.844	5.63
423.201	5.63
423.558	5.63
423.915	5.63
424.273	5.63
424.63	5.63
424.987	5.64
425.344	5.64
425.701	5.64
426.058	5.64
426.415	5.64
426.772	5.65
427.128	5.64
427.485	5.63
427.842	5.62
428.199	5.6
428.555	5.58
428.912	5.56
429.269	5.52
429.625	5.49
429.982	5.46
430.338	5.42
430.695	5.4
431.051	5.36
431.407	5.34
431.764	5.32
432.12	5.29
432.476	5.28
432.832	5.27
433.189	5.27
433.545	5.28
433.901	5.3
434.257	5.32
434.613	5.36
434.969	5.39
435.325	5.42
435.681	5.47
436.036	5.5
436.392	5.53
436.748	5.55
437.104	5.56
437.459	5.59
437.815	5.61
438.171	5.64
438.526	5.67
438.882	5.72
439.237	5.76
439.593	5.81
439.948	5.85
440.304	5.9
440.659	5.93
441.014	5.96
441.369	5.99
441.725	6.02
442.08	6.04
442.435	6.06
442.79	6.07
443.145	6.08
443.5	6.08
443.855	6.08
444.21	6.08
444.565	6.08
444.92	6.07
445.275	6.06
445.629	6.06
445.984	6.04
446.339	6.03
446.693	6.02
447.048	5.99
447.403	5.98
447.757	5.95
448.112	5.92
448.466	5.89
448.82	5.87
449.175	5.84
449.529	5.81
449.883	5.79
450.238	5.76
450.592	5.76
450.946	5.75
451.3	5.75
451.654	5.77
452.008	5.77
452.362	5.78
452.716	5.78
453.07	5.78
453.424	5.77
453.778	5.77
454.132	5.76
454.486	5.75
454.839	5.73
455.193	5.7
455.547	5.69
455.9	5.65
456.254	5.62
456.607	5.58
456.961	5.55
457.314	5.52
457.668	5.51
458.021	5.5
458.375	5.49
458.728	5.49
459.081	5.49
459.434	5.5
459.787	5.51
460.141	5.52
460.494	5.54
460.847	5.54
461.2	5.55
461.553	5.55
461.906	5.55
462.259	5.56
462.611	5.56
462.964	5.56
463.317	5.57
463.67	5.57
464.022	5.59
464.375	5.59
464.728	5.59
465.08	5.59
465.433	5.59
465.785	5.59
466.138	5.56
466.49	5.54
466.843	5.51
467.195	5.48
467.547	5.45
467.899	5.42
468.252	5.38
468.604	5.34
468.956	5.31
469.308	5.29
469.66	5.28
470.012	5.27
470.364	5.28
470.716	5.28
471.068	5.3
471.42	5.32
471.772	5.35
472.123	5.36
472.475	5.37
472.827	5.39
473.178	5.4
473.53	5.41
473.882	5.43
474.233	5.46
474.585	5.5
474.936	5.58
475.288	5.7
475.639	5.86
475.99	6.03
476.342	6.23
476.693	6.44
477.044	6.66
477.395	6.88
477.746	7.11
478.097	7.34
478.448	7.57
478.8	7.8
479.15	8.01
479.501	8.21
479.852	8.38
480.203	8.56
480.554	8.72
480.905	8.88
481.255	9.02
481.606	9.17
481.957	9.31
482.307	9.44
482.658	9.56
483.009	9.68
483.359	9.79
483.709	9.91
484.06	10.01
484.41	10.11
484.761	10.21
485.111	10.31
485.461	10.4
485.811	10.48
486.162	10.56
486.512	10.63
486.862	10.68
487.212	10.72
487.562	10.74
487.912	10.75
488.262	10.76
488.612	10.75
488.961	10.73
489.311	10.67
489.661	10.57
490.011	10.45
490.36	10.31
490.71	10.15
491.06	9.98
491.409	9.79
491.759	9.59
492.108	9.38
492.458	9.17
492.807	8.94
493.157	8.72
493.506	8.51
493.855	8.31
494.204	8.13
494.554	7.94
494.903	7.77
495.252	7.61
495.601	7.46
495.95	7.3
496.299	7.16
496.648	7.02
496.997	6.89
497.346	6.77
497.695	6.65
498.043	6.53
498.392	6.41
498.741	6.31
499.09	6.2
499.438	6.1
499.787	6
500.135	5.91
500.484	5.83
500.832	5.76
501.181	5.7
501.529	5.67
501.878	5.65
502.226	5.63
502.574	5.62
502.923	5.61
503.271	5.61
503.619	5.6
503.967	5.6
504.315	5.59
504.663	5.58
505.011	5.57
505.359	5.56
505.707	5.54
506.055	5.54
506.403	5.53
506.751	5.53
507.098	5.53
507.446	5.53
507.794	5.54
508.141	5.54
508.489	5.55
508.837	5.57
509.184	5.58
509.531	5.59
509.879	5.6
510.226	5.62
510.574	5.63
510.921	5.65
511.268	5.67
511.616	5.7
511.963	5.72
512.31	5.75
512.657	5.77
513.004	5.79
513.351	5.81
513.698	5.83
514.045	5.83
514.392	5.84
514.739	5.83
515.086	5.83
515.432	5.82
515.779	5.81
516.126	5.8
516.473	5.8
516.819	5.8
517.166	5.81
517.512	5.82
517.859	5.83
518.205	5.86
518.552	5.89
518.898	5.92
519.245	5.97
519.591	6.04
519.937	6.13
520.283	6.24
520.629	6.37
520.976	6.51
521.322	6.66
521.668	6.81
522.014	6.97
522.36	7.13
522.706	7.28
523.052	7.42
523.398	7.56
523.743	7.67
524.089	7.77
524.435	7.86
524.781	7.94
525.126	8.01
525.472	8.08
525.817	8.14
526.163	8.2
526.509	8.26
526.854	8.31
527.199	8.37
527.545	8.42
527.89	8.48
528.235	8.54
528.581	8.6
528.926	8.65
529.271	8.7
529.616	8.74
529.961	8.78
530.306	8.82
530.651	8.85
530.996	8.87
531.341	8.88
531.686	8.89
532.031	8.9
532.376	8.9
532.721	8.9
533.065	8.91
533.41	8.92
533.755	8.91
534.099	8.89
534.444	8.85
534.788	8.81
535.133	8.76
535.477	8.7
535.822	8.63
536.166	8.56
536.51	8.47
536.855	8.37
537.199	8.27
537.543	8.17
537.887	8.08
538.231	8
538.576	7.93
538.92	7.86
539.264	7.79
539.608	7.71
539.951	7.63
540.295	7.56
540.639	7.48
540.983	7.39
541.327	7.31
541.671	7.22
542.014	7.15
542.358	7.07
542.701	7.02
543.045	6.98
543.389	6.95
543.732	6.92
544.075	6.9
544.419	6.87
544.762	6.85
545.105	6.84
545.449	6.82
545.792	6.81
546.135	6.8
546.478	6.78
546.821	6.75
547.165	6.71
547.508	6.66
547.851	6.6
548.194	6.53
548.536	6.45
548.879	6.36
549.222	6.27
549.565	6.18
549.908	6.09
550.25	6.01
550.593	5.93
550.936	5.87
551.278	5.82
551.621	5.78
551.963	5.74
552.306	5.71
552.648	5.68
552.991	5.66
553.333	5.64
553.675	5.63
554.017	5.63
554.36	5.62
554.702	5.63
555.044	5.64
555.386	5.66
555.728	5.68
556.07	5.69
556.412	5.72
556.754	5.72
557.096	5.72
557.438	5.72
557.78	5.73
558.121	5.72
558.463	5.72
558.805	5.73
559.147	5.73
559.488	5.73
559.83	5.73
560.171	5.73
560.513	5.74
560.854	5.74
561.196	5.74
561.537	5.74
561.878	5.74
562.22	5.75
562.561	5.75
562.902	5.75
563.243	5.75
563.584	5.75
563.925	5.76
564.266	5.76
564.607	5.76
564.948	5.76
565.289	5.76
565.63	5.77
565.971	5.78
566.312	5.78
566.653	5.79
566.993	5.79
567.334	5.8
567.675	5.8
568.015	5.81
568.356	5.82
568.696	5.81
569.037	5.82
569.377	5.82
569.718	5.82
570.058	5.82
570.398	5.82
570.739	5.82
571.079	5.82
571.419	5.82
571.759	5.82
572.099	5.82
572.439	5.82
572.779	5.82
573.119	5.82
573.459	5.82
573.799	5.82
574.139	5.82
574.479	5.82
574.819	5.82
575.158	5.82
575.498	5.82
575.838	5.83
576.177	5.83
576.517	5.83
576.856	5.83
577.196	5.83
577.535	5.82
577.875	5.82
578.214	5.82
578.553	5.82
578.893	5.82
579.232	5.82
579.571	5.82
579.91	5.82
580.25	5.82
580.589	5.81
580.928	5.81
581.267	5.81
581.606	5.81
581.945	5.8
582.283	5.8
582.622	5.81
582.961	5.81
583.3	5.81
583.639	5.81
583.977	5.81
584.316	5.82
584.654	5.82
584.993	5.82
585.332	5.82
585.67	5.82
586.008	5.83
586.347	5.83
586.685	5.83
587.024	5.83
587.362	5.83
587.7	5.83
588.038	5.83
588.376	5.83
588.715	5.83
589.053	5.84
589.391	5.84
589.729	5.85
590.067	5.84
590.404	5.85
590.742	5.85
591.08	5.86
591.418	5.87
591.756	5.87
592.093	5.87
592.431	5.87
592.769	5.87
593.106	5.88
593.444	5.88
593.781	5.88
594.119	5.88
594.456	5.88
594.793	5.88
595.131	5.89
595.468	5.88
595.805	5.89
596.143	5.89
596.48	5.89
596.817	5.89
597.154	5.9
597.491	5.9
597.828	5.9
598.165	5.9
598.502	5.91
598.839	5.92
599.176	5.93
599.512	5.93
599.849	5.93
600.186	5.93
600.523	5.94
600.859	5.94
601.196	5.94
601.532	5.94
601.869	5.95
602.205	5.95
602.542	5.95
602.878	5.96
603.215	5.95
603.551	5.95
603.887	5.95
604.223	5.95
604.56	5.96
604.896	5.96
605.232	5.96
605.568	5.96
605.904	5.96
606.24	5.96
606.576	5.96
606.912	5.96
607.248	5.96
607.583	5.97
607.919	5.97
608.255	5.97
608.591	5.97
608.926	5.97
609.262	5.97
609.597	5.97
609.933	5.97
610.268	5.97
610.604	5.97
610.939	5.97
611.275	5.96
611.61	5.97
611.945	5.97
612.281	5.97
612.616	5.97
612.951	5.96
613.286	5.95
613.621	5.95
613.956	5.95
614.291	5.95
614.626	5.96
614.961	5.96
615.296	5.97
615.631	5.97
615.966	5.97
616.3	5.98
616.635	5.97
616.97	5.98
617.304	5.98
617.639	5.99
617.973	5.98
618.308	5.98
618.642	5.98
618.977	5.98
619.311	5.98
619.646	5.98
619.98	5.98
620.314	5.99
620.648	5.99
620.983	6
621.317	6.01
621.651	6.02
621.985	6.02
622.319	6.02
622.653	6.03
622.987	6.03
623.321	6.03
623.655	6.04
623.988	6.04
624.322	6.04
624.656	6.05
624.99	6.05
625.323	6.05
625.657	6.06
625.99	6.06
626.324	6.06
626.657	6.06
626.991	6.07
627.324	6.07
627.658	6.07
627.991	6.06
628.324	6.07
628.657	6.07
628.991	6.07
629.324	6.07
629.657	6.07
629.99	6.07
630.323	6.08
630.656	6.08
630.989	6.08
631.322	6.08
631.655	6.08
631.987	6.09
632.32	6.09
632.653	6.1
632.986	6.1
633.318	6.11
633.651	6.11
633.984	6.11
634.316	6.11
634.649	6.12
634.981	6.11
635.313	6.11
635.646	6.11
635.978	6.12
636.31	6.12
636.643	6.13
636.975	6.13
637.307	6.13
637.639	6.14
637.971	6.14
638.303	6.14
638.635	6.14
638.967	6.14
639.299	6.15
639.631	6.15
639.963	6.16
640.295	6.17
640.626	6.17
640.958	6.18
641.29	6.19
641.621	6.2
641.953	6.21
642.285	6.21
642.616	6.21
642.948	6.22
643.279	6.22
643.61	6.24
643.942	6.24
644.273	6.24
644.604	6.25
644.936	6.25
645.267	6.25
645.598	6.25
645.929	6.26
646.26	6.26
646.591	6.26
646.922	6.26
647.253	6.27
647.584	6.28
647.915	6.29
648.245	6.28
648.576	6.29
648.907	6.29
649.238	6.29
649.568	6.3
649.899	6.29
650.229	6.29
650.56	6.3
650.89	6.3
651.221	6.3
651.551	6.3
651.882	6.31
652.212	6.31
652.542	6.32
652.872	6.32
653.203	6.32
653.533	6.31
653.863	6.32
654.193	6.33
654.523	6.33
654.853	6.33
655.183	6.34
655.513	6.34
655.843	6.34
656.172	6.34
656.502	6.35
656.832	6.35
657.162	6.34
657.491	6.35
657.821	6.35
658.15	6.36
658.48	6.37
658.809	6.38
659.139	6.38
659.468	6.38
659.798	6.39
660.127	6.39
660.456	6.4
660.785	6.4
661.115	6.41
661.444	6.41
661.773	6.42
662.102	6.43
662.431	6.43
662.76	6.44
663.089	6.45
663.418	6.46
663.747	6.46
664.076	6.47
664.404	6.47
664.733	6.48
665.062	6.49
665.39	6.5
665.719	6.5
666.048	6.5
666.376	6.51
666.705	6.52
667.033	6.53
667.362	6.54
667.69	6.53
668.018	6.53
668.347	6.54
668.675	6.55
669.003	6.55
669.331	6.56
669.659	6.57
669.987	6.57
670.315	6.58
670.643	6.59
670.971	6.59
671.299	6.6
671.627	6.59
671.955	6.6
672.283	6.6
672.61	6.61
672.938	6.61
673.266	6.61
673.593	6.61
673.921	6.61
674.249	6.62
674.576	6.62
674.904	6.62
675.231	6.62
675.558	6.62
675.886	6.63
676.213	6.63
676.54	6.63
676.867	6.62
677.195	6.63
677.522	6.63
677.849	6.63
678.176	6.64
678.503	6.64
678.83	6.65
679.157	6.65
679.484	6.66
679.81	6.66
680.137	6.66
680.464	6.67
680.791	6.68
681.117	6.69
