Data from UWBM50074_Reflection_00015.txt Node
Date: Sun May 02 12:36:47 EDT 2021
User: vgr7
Spectrometer: USB2G7710
Scans to average: 10
Trigger mode: 4
Integration Time (sec): 1.000000E-1
Electric dark correction enabled: true
Boxcar width: 10
XAxis mode: Wavelengths
Number of Pixels in Spectrum: 2048
>>>>>Begin Spectral Data<<<<<
177.721	-33.18
178.105	-122.73
178.488	354.1
178.871	-135.85
179.254	144
179.636	96.92
180.019	109.92
180.402	-31.58
180.785	68.76
181.168	51.8
181.55	42.52
181.933	147.69
182.316	67.2
182.698	107.87
183.081	120
183.463	-197.47
183.846	-34.83
184.228	-54.85
184.611	-55.01
184.993	-34.14
185.376	-23.39
185.758	-21.29
186.14	-19.89
186.522	-9.08
186.904	-8.67
187.287	1.43
187.669	1.61
188.051	-5.74
188.433	2.32
188.815	0.25
189.197	0.45
189.579	1.75
189.961	6.47
190.342	2.72
190.724	4.93
191.106	7.16
191.488	10.59
191.869	4.85
192.251	3.62
192.633	3.91
193.014	4.11
193.396	4.94
193.777	4.85
194.159	3.24
194.54	-0
194.922	1.58
195.303	0.45
195.684	0.3
196.065	0.59
196.447	-3.1
196.828	-2.69
197.209	-2.4
197.59	-3.45
197.971	-4.39
198.352	-1.39
198.733	2.86
199.114	4.72
199.495	2.53
199.876	6.04
200.257	6.7
200.638	6.73
201.018	6.24
201.399	8.23
201.78	7.73
202.16	8.99
202.541	7.39
202.922	8.02
203.302	8.11
203.683	11.68
204.063	11.97
204.444	13.68
204.824	15.92
205.204	17.42
205.585	18.95
205.965	20.89
206.345	20.74
206.725	15.67
207.106	12.51
207.486	13.46
207.866	15.43
208.246	14.46
208.626	16.35
209.006	16.95
209.386	15.53
209.766	15.23
210.145	13.02
210.525	13.1
210.905	11.58
211.285	10.79
211.664	8.77
212.044	9.26
212.424	11.18
212.803	8.47
213.183	8.31
213.562	5.98
213.942	3.71
214.321	1.35
214.701	1.91
215.08	3.03
215.459	3.2
215.838	1.97
216.218	6.88
216.597	7.96
216.976	6.25
217.355	9.22
217.734	10.54
218.113	11.81
218.492	12.62
218.871	14.86
219.25	16.59
219.629	18.24
220.008	19.14
220.387	16.49
220.766	13.06
221.144	13.17
221.523	14.5
221.902	13.05
222.28	15.06
222.659	15.94
223.037	16.54
223.416	16.09
223.794	16.26
224.173	14.43
224.551	12.68
224.929	12.7
225.308	11.44
225.686	10.63
226.064	11.06
226.442	10.86
226.821	10.53
227.199	8.96
227.577	7.1
227.955	6.36
228.333	6.17
228.711	7.42
229.089	8.14
229.467	8.06
229.845	8.85
230.222	8.29
230.6	8.34
230.978	8.76
231.356	9.23
231.733	8.44
232.111	8.38
232.488	8.11
232.866	7.54
233.243	6.84
233.621	7.87
233.998	7.74
234.376	8.04
234.753	7.71
235.13	7.88
235.508	8.53
235.885	8.78
236.262	8.41
236.639	8.45
237.016	7.79
237.393	7.62
237.77	7.01
238.147	6.87
238.524	6.81
238.901	6.55
239.278	6.21
239.655	6.26
240.032	6.21
240.409	6.23
240.785	6.17
241.162	6.24
241.539	5.98
241.915	5.88
242.292	5.83
242.668	5.78
243.045	5.78
243.421	5.66
243.798	5.56
244.174	5.62
244.551	5.57
244.927	5.56
245.303	5.44
245.679	5.51
246.056	5.47
246.432	5.46
246.808	5.47
247.184	5.47
247.56	5.46
247.936	5.46
248.312	5.46
248.688	5.52
249.064	5.46
249.44	5.42
249.815	5.43
250.191	5.38
250.567	5.34
250.943	5.33
251.318	5.35
251.694	5.34
252.069	5.29
252.445	5.36
252.82	5.36
253.196	5.41
253.571	5.37
253.947	5.48
254.322	5.48
254.697	5.49
255.073	5.47
255.448	5.48
255.823	5.4
256.198	5.31
256.573	5.22
256.948	5.16
257.323	5.2
257.698	5.12
258.073	5.1
258.448	5.13
258.823	5.13
259.198	5.11
259.573	5.1
259.948	5.13
260.322	5.08
260.697	5.07
261.072	5.09
261.446	5.05
261.821	5
262.195	4.96
262.57	4.92
262.944	4.93
263.319	4.9
263.693	4.91
264.067	4.91
264.442	4.91
264.816	4.91
265.19	4.83
265.564	4.88
265.938	4.84
266.313	4.84
266.687	4.78
267.061	4.77
267.435	4.76
267.809	4.73
268.183	4.74
268.556	4.74
268.93	4.72
269.304	4.73
269.678	4.68
270.051	4.67
270.425	4.64
270.799	4.64
271.172	4.64
271.546	4.63
271.919	4.66
272.293	4.66
272.666	4.69
273.04	4.72
273.413	4.7
273.787	4.7
274.16	4.65
274.533	4.69
274.906	4.66
275.279	4.67
275.653	4.65
276.026	4.63
276.399	4.6
276.772	4.62
277.145	4.63
277.518	4.64
277.891	4.67
278.263	4.7
278.636	4.72
279.009	4.69
279.382	4.65
279.755	4.61
280.127	4.63
280.5	4.62
280.872	4.6
281.245	4.62
281.617	4.63
281.99	4.68
282.362	4.67
282.735	4.67
283.107	4.65
283.479	4.68
283.852	4.67
284.224	4.72
284.596	4.7
284.968	4.7
285.34	4.72
285.713	4.74
286.085	4.75
286.457	4.76
286.829	4.78
287.201	4.83
287.572	4.87
287.944	4.88
288.316	4.94
288.688	4.95
289.06	4.96
289.431	5.01
289.803	5
290.175	5.03
290.546	5.08
290.918	5.13
291.289	5.15
291.661	5.21
292.032	5.22
292.403	5.27
292.775	5.3
293.146	5.34
293.517	5.39
293.889	5.42
294.26	5.43
294.631	5.49
295.002	5.54
295.373	5.6
295.744	5.64
296.115	5.67
296.486	5.72
296.857	5.76
297.228	5.79
297.599	5.85
297.97	5.87
298.34	5.91
298.711	5.92
299.082	5.95
299.452	5.97
299.823	6.02
300.194	6.06
300.564	6.1
300.935	6.16
301.305	6.18
301.676	6.21
302.046	6.28
302.416	6.31
302.787	6.36
303.157	6.41
303.527	6.47
303.897	6.53
304.267	6.6
304.637	6.68
305.008	6.76
305.378	6.83
305.748	6.9
306.117	6.96
306.487	7.06
306.857	7.14
307.227	7.21
307.597	7.26
307.967	7.33
308.336	7.42
308.706	7.46
309.076	7.52
309.445	7.6
309.815	7.64
310.184	7.7
310.554	7.73
310.923	7.76
311.293	7.79
311.662	7.84
312.031	7.9
312.401	7.95
312.77	7.96
313.139	8.02
313.508	8.06
313.877	8.12
314.246	8.16
314.616	8.22
314.985	8.28
315.353	8.33
315.722	8.39
316.091	8.44
316.46	8.52
316.829	8.6
317.198	8.68
317.567	8.74
317.935	8.84
318.304	8.91
318.672	9.01
319.041	9.1
319.41	9.16
319.778	9.23
320.147	9.28
320.515	9.34
320.883	9.41
321.252	9.48
321.62	9.48
321.988	9.54
322.357	9.61
322.725	9.66
323.093	9.73
323.461	9.77
323.829	9.83
324.197	9.88
324.565	9.89
324.933	9.92
325.301	9.99
325.669	9.99
326.037	10.04
326.405	10.06
326.772	10.07
327.14	10.08
327.508	10.11
327.875	10.17
328.243	10.22
328.61	10.25
328.978	10.31
329.346	10.36
329.713	10.38
330.08	10.41
330.448	10.46
330.815	10.47
331.182	10.49
331.55	10.53
331.917	10.57
332.284	10.62
332.651	10.66
333.018	10.67
333.385	10.71
333.752	10.73
334.119	10.77
334.486	10.8
334.853	10.85
335.22	10.89
335.587	10.89
335.954	10.92
336.32	10.92
336.687	10.9
337.054	10.96
337.42	11.02
337.787	11.06
338.153	11.08
338.52	11.12
338.886	11.16
339.253	11.18
339.619	11.16
339.986	11.18
340.352	11.24
340.718	11.29
341.084	11.31
341.451	11.34
341.817	11.36
342.183	11.42
342.549	11.41
342.915	11.43
343.281	11.48
343.647	11.51
344.013	11.54
344.379	11.58
344.745	11.59
345.11	11.59
345.476	11.59
345.842	11.62
346.208	11.63
346.573	11.66
346.939	11.69
347.304	11.73
347.67	11.75
348.035	11.76
348.401	11.76
348.766	11.77
349.132	11.78
349.497	11.8
349.862	11.81
350.228	11.83
350.593	11.84
350.958	11.83
351.323	11.82
351.688	11.83
352.053	11.83
352.418	11.83
352.783	11.84
353.148	11.83
353.513	11.82
353.878	11.82
354.243	11.8
354.608	11.78
354.972	11.77
355.337	11.75
355.702	11.72
356.066	11.7
356.431	11.66
356.795	11.63
357.16	11.61
357.524	11.58
357.889	11.56
358.253	11.53
358.618	11.51
358.982	11.48
359.346	11.46
359.71	11.43
360.075	11.39
360.439	11.37
360.803	11.34
361.167	11.31
361.531	11.27
361.895	11.25
362.259	11.23
362.623	11.19
362.987	11.16
363.351	11.15
363.714	11.12
364.078	11.09
364.442	11.06
364.806	11.02
365.169	10.99
365.533	10.95
365.896	10.9
366.26	10.86
366.623	10.82
366.987	10.76
367.35	10.71
367.714	10.67
368.077	10.61
368.44	10.56
368.803	10.51
369.167	10.46
369.53	10.41
369.893	10.37
370.256	10.31
370.619	10.26
370.982	10.17
371.345	10.11
371.708	10.04
372.071	9.97
372.434	9.92
372.797	9.84
373.159	9.79
373.522	9.72
373.885	9.65
374.247	9.59
374.61	9.52
374.973	9.44
375.335	9.36
375.698	9.29
376.06	9.23
376.423	9.16
376.785	9.09
377.147	9.01
377.51	8.96
377.872	8.88
378.234	8.81
378.596	8.75
378.958	8.69
379.321	8.63
379.683	8.57
380.045	8.49
380.407	8.43
380.769	8.37
381.13	8.32
381.492	8.26
381.854	8.21
382.216	8.17
382.578	8.12
382.939	8.08
383.301	8.02
383.663	7.98
384.024	7.93
384.386	7.88
384.747	7.85
385.109	7.79
385.47	7.75
385.832	7.71
386.193	7.68
386.554	7.64
386.916	7.61
387.277	7.58
387.638	7.55
387.999	7.51
388.36	7.48
388.721	7.43
389.082	7.41
389.443	7.36
389.804	7.32
390.165	7.28
390.526	7.23
390.887	7.2
391.248	7.16
391.609	7.12
391.969	7.08
392.33	7.04
392.691	7
393.051	6.97
393.412	6.93
393.772	6.89
394.133	6.85
394.493	6.81
394.854	6.76
395.214	6.7
395.574	6.66
395.935	6.61
396.295	6.56
396.655	6.5
397.015	6.47
397.376	6.42
397.736	6.37
398.096	6.32
398.456	6.29
398.816	6.23
399.176	6.19
399.535	6.15
399.895	6.1
400.255	6.06
400.615	6.02
400.975	5.98
401.334	5.94
401.694	5.91
402.054	5.88
402.413	5.86
402.773	5.84
403.132	5.82
403.492	5.79
403.851	5.77
404.211	5.76
404.57	5.74
404.929	5.72
405.288	5.7
405.648	5.69
406.007	5.67
406.366	5.66
406.725	5.65
407.084	5.62
407.443	5.61
407.802	5.59
408.161	5.59
408.52	5.58
408.879	5.56
409.238	5.55
409.596	5.54
409.955	5.52
410.314	5.5
410.673	5.48
411.031	5.48
411.39	5.47
411.748	5.45
412.107	5.44
412.465	5.43
412.824	5.42
413.182	5.41
413.54	5.4
413.899	5.39
414.257	5.38
414.615	5.38
414.974	5.37
415.332	5.37
415.69	5.36
416.048	5.36
416.406	5.4
416.764	5.42
417.122	5.46
417.48	5.5
417.838	5.54
418.195	5.61
418.553	5.66
418.911	5.71
419.269	5.77
419.626	5.81
419.984	5.87
420.342	5.92
420.699	5.96
421.057	6.01
421.414	6.06
421.772	6.09
422.129	6.12
422.486	6.13
422.844	6.14
423.201	6.13
423.558	6.1
423.915	6.03
424.273	5.97
424.63	5.88
424.987	5.79
425.344	5.71
425.701	5.61
426.058	5.54
426.415	5.47
426.772	5.38
427.128	5.31
427.485	5.22
427.842	5.15
428.199	5.08
428.555	5
428.912	4.92
429.269	4.86
429.625	4.81
429.982	4.76
430.338	4.73
430.695	4.72
431.051	4.72
431.407	4.75
431.764	4.76
432.12	4.81
432.476	4.84
432.832	4.87
433.189	4.88
433.545	4.89
433.901	4.9
434.257	4.91
434.613	4.91
434.969	4.93
435.325	4.95
435.681	4.98
436.036	5.02
436.392	5.06
436.748	5.12
437.104	5.16
437.459	5.22
437.815	5.27
438.171	5.33
438.526	5.37
438.882	5.41
439.237	5.46
439.593	5.47
439.948	5.5
440.304	5.52
440.659	5.54
441.014	5.58
441.369	5.61
441.725	5.65
442.08	5.71
442.435	5.76
442.79	5.82
443.145	5.88
443.5	5.9
443.855	5.94
444.21	5.94
444.565	5.94
444.92	5.94
445.275	5.92
445.629	5.91
445.984	5.9
446.339	5.86
446.693	5.82
447.048	5.79
447.403	5.76
447.757	5.73
448.112	5.7
448.466	5.63
448.82	5.57
449.175	5.49
449.529	5.41
449.883	5.32
450.238	5.22
450.592	5.12
450.946	5.05
451.3	4.95
451.654	4.88
452.008	4.82
452.362	4.73
452.716	4.68
453.07	4.61
453.424	4.57
453.778	4.55
454.132	4.54
454.486	4.53
454.839	4.55
455.193	4.59
455.547	4.64
455.9	4.71
456.254	4.78
456.607	4.85
456.961	4.93
457.314	5.02
457.668	5.08
458.021	5.14
458.375	5.19
458.728	5.21
459.081	5.23
459.434	5.24
459.787	5.26
460.141	5.25
460.494	5.23
460.847	5.21
461.2	5.2
461.553	5.19
461.906	5.19
462.259	5.18
462.611	5.15
462.964	5.12
463.317	5.08
463.67	5.04
464.022	5
464.375	4.95
464.728	4.89
465.08	4.86
465.433	4.82
465.785	4.8
466.138	4.8
466.49	4.79
466.843	4.81
467.195	4.83
467.547	4.87
467.899	4.92
468.252	4.98
468.604	5.01
468.956	5.04
469.308	5.08
469.66	5.1
470.012	5.11
470.364	5.13
470.716	5.14
471.068	5.16
471.42	5.17
471.772	5.18
472.123	5.19
472.475	5.21
472.827	5.22
473.178	5.23
473.53	5.24
473.882	5.25
474.233	5.25
474.585	5.26
474.936	5.26
475.288	5.26
475.639	5.27
475.99	5.27
476.342	5.28
476.693	5.28
477.044	5.29
477.395	5.31
477.746	5.35
478.097	5.42
478.448	5.54
478.8	5.74
479.15	5.98
479.501	6.27
479.852	6.58
480.203	6.92
480.554	7.26
480.905	7.63
481.255	7.99
481.606	8.36
481.957	8.74
482.307	9.11
482.658	9.46
483.009	9.78
483.359	10.08
483.709	10.37
484.06	10.65
484.41	10.91
484.761	11.15
485.111	11.38
485.461	11.56
485.811	11.67
486.162	11.71
486.512	11.7
486.862	11.63
487.212	11.53
487.562	11.39
487.912	11.23
488.262	11.05
488.612	10.86
488.961	10.66
489.311	10.43
489.661	10.2
490.011	9.97
490.36	9.74
490.71	9.51
491.06	9.27
491.409	9.03
491.759	8.79
492.108	8.57
492.458	8.34
492.807	8.14
493.157	7.94
493.506	7.77
493.855	7.59
494.204	7.42
494.554	7.26
494.903	7.12
495.252	6.98
495.601	6.84
495.95	6.7
496.299	6.57
496.648	6.45
496.997	6.33
497.346	6.24
497.695	6.17
498.043	6.13
498.392	6.12
498.741	6.13
499.09	6.15
499.438	6.18
499.787	6.22
500.135	6.26
500.484	6.32
500.832	6.38
501.181	6.44
501.529	6.52
501.878	6.59
502.226	6.67
502.574	6.76
502.923	6.86
503.271	6.99
503.619	7.13
503.967	7.28
504.315	7.45
504.663	7.64
505.011	7.84
505.359	8.06
505.707	8.28
506.055	8.49
506.403	8.72
506.751	8.95
507.098	9.18
507.446	9.42
507.794	9.65
508.141	9.88
508.489	10.12
508.837	10.36
509.184	10.6
509.531	10.84
509.879	11.08
510.226	11.32
510.574	11.56
510.921	11.8
511.268	12.04
511.616	12.29
511.963	12.55
512.31	12.82
512.657	13.11
513.004	13.42
513.351	13.75
513.698	14.12
514.045	14.51
514.392	14.92
514.739	15.36
515.086	15.82
515.432	16.29
515.779	16.77
516.126	17.24
516.473	17.71
516.819	18.15
517.166	18.56
517.512	18.94
517.859	19.29
518.205	19.6
518.552	19.89
518.898	20.18
519.245	20.45
519.591	20.71
519.937	20.99
520.283	21.31
520.629	21.68
520.976	22.05
521.322	22.46
521.668	22.88
522.014	23.35
522.36	23.86
522.706	24.48
523.052	25.28
523.398	26.29
523.743	27.53
524.089	28.92
524.435	30.42
524.781	32.03
525.126	33.71
525.472	35.44
525.817	37.21
526.163	38.96
526.509	40.68
526.854	42.3
527.199	43.75
527.545	45
527.89	46.11
528.235	47.16
528.581	48.15
528.926	49.08
529.271	49.94
529.616	50.71
529.961	51.35
530.306	51.76
530.651	51.95
530.996	51.9
531.341	51.73
531.686	51.42
532.031	50.95
532.376	50.34
532.721	49.63
533.065	48.84
533.41	48.04
533.755	47.24
534.099	46.51
534.444	45.87
534.788	45.34
535.133	44.88
535.477	44.44
535.822	44.12
536.166	43.93
536.51	43.89
536.855	43.98
537.199	44.19
537.543	44.49
537.887	44.92
538.231	45.41
538.576	45.91
538.92	46.49
539.264	47.12
539.608	47.76
539.951	48.33
540.295	48.81
540.639	49.21
540.983	49.55
541.327	49.87
541.671	50.19
542.014	50.46
542.358	50.69
542.701	50.87
543.045	50.89
543.389	50.72
543.732	50.38
544.075	49.86
544.419	49.19
544.762	48.35
545.105	47.35
545.449	46.38
545.792	45.39
546.135	44.48
546.478	43.68
546.821	42.94
547.165	42.32
547.508	41.85
547.851	41.5
548.194	41.24
548.536	41.03
548.879	40.84
549.222	40.73
549.565	40.68
549.908	40.68
550.25	40.75
550.593	40.87
550.936	41.05
551.278	41.26
551.621	41.57
551.963	41.98
552.306	42.5
552.648	42.92
552.991	43.34
553.333	43.63
553.675	43.78
554.017	43.94
554.36	44.1
554.702	44.23
555.044	44.38
555.386	44.53
555.728	44.65
556.07	44.79
556.412	44.93
556.754	45.08
557.096	45.2
557.438	45.33
557.78	45.47
558.121	45.59
558.463	45.73
558.805	45.86
559.147	46.01
559.488	46.15
559.83	46.29
560.171	46.44
560.513	46.59
560.854	46.77
561.196	46.93
561.537	47.08
561.878	47.25
562.22	47.42
562.561	47.57
562.902	47.72
563.243	47.89
563.584	48.03
563.925	48.17
564.266	48.32
564.607	48.44
564.948	48.57
565.289	48.69
565.63	48.81
565.971	48.93
566.312	49.04
566.653	49.16
566.993	49.26
567.334	49.35
567.675	49.48
568.015	49.59
568.356	49.69
568.696	49.81
569.037	49.93
569.377	50.01
569.718	50.12
570.058	50.21
570.398	50.31
570.739	50.41
571.079	50.49
571.419	50.57
571.759	50.66
572.099	50.74
572.439	50.82
572.779	50.89
573.119	50.97
573.459	51.05
573.799	51.12
574.139	51.19
574.479	51.26
574.819	51.3
575.158	51.33
575.498	51.37
575.838	51.38
576.177	51.41
576.517	51.45
576.856	51.47
577.196	51.51
577.535	51.52
577.875	51.56
578.214	51.6
578.553	51.64
578.893	51.66
579.232	51.67
579.571	51.71
579.91	51.76
580.25	51.78
580.589	51.81
580.928	51.84
581.267	51.89
581.606	51.92
581.945	51.95
582.283	52.02
582.622	52.07
582.961	52.14
583.3	52.18
583.639	52.24
583.977	52.29
584.316	52.36
584.654	52.45
584.993	52.48
585.332	52.56
585.67	52.62
586.008	52.7
586.347	52.76
586.685	52.83
587.024	52.92
587.362	52.99
587.7	53.08
588.038	53.13
588.376	53.2
588.715	53.27
589.053	53.36
589.391	53.43
589.729	53.48
590.067	53.53
590.404	53.6
590.742	53.68
591.08	53.76
591.418	53.8
591.756	53.86
592.093	53.93
592.431	54.01
592.769	54.1
593.106	54.16
593.444	54.24
593.781	54.29
594.119	54.33
594.456	54.41
594.793	54.47
595.131	54.53
595.468	54.58
595.805	54.63
596.143	54.66
596.48	54.7
596.817	54.74
597.154	54.78
597.491	54.8
597.828	54.83
598.165	54.84
598.502	54.89
598.839	54.94
599.176	54.97
599.512	54.98
599.849	55.01
600.186	55.07
600.523	55.13
600.859	55.21
601.196	55.29
601.532	55.34
601.869	55.38
602.205	55.43
602.542	55.48
602.878	55.53
603.215	55.58
603.551	55.63
603.887	55.69
604.223	55.72
604.56	55.77
604.896	55.82
605.232	55.87
605.568	55.88
605.904	55.91
606.24	55.95
606.576	55.98
606.912	55.99
607.248	56.02
607.583	56.03
607.919	56.03
608.255	56.04
608.591	56.03
608.926	56.04
609.262	56.05
609.597	56.05
609.933	56.07
610.268	56.07
610.604	56.04
610.939	56.04
611.275	56.05
611.61	56.05
611.945	56.03
612.281	56.03
612.616	56.05
612.951	56.05
613.286	56.04
613.621	56.05
613.956	56.06
614.291	56.03
614.626	56.03
614.961	56.05
615.296	56.04
615.631	56.03
615.966	56.03
616.3	56.04
616.635	56.03
616.97	56.02
617.304	56.05
617.639	56.1
617.973	56.13
618.308	56.17
618.642	56.18
618.977	56.22
619.311	56.24
619.646	56.25
619.98	56.26
620.314	56.3
620.648	56.32
620.983	56.36
621.317	56.38
621.651	56.41
621.985	56.41
622.319	56.43
622.653	56.48
622.987	56.54
623.321	56.58
623.655	56.63
623.988	56.69
624.322	56.71
624.656	56.73
624.99	56.79
625.323	56.81
625.657	56.85
625.99	56.86
626.324	56.88
626.657	56.92
626.991	56.95
627.324	56.98
627.658	57
627.991	57
628.324	57.03
628.657	57.02
628.991	57.05
629.324	57.07
629.657	57.09
629.99	57.1
630.323	57.1
630.656	57.13
630.989	57.12
631.322	57.14
631.655	57.16
631.987	57.14
632.32	57.14
632.653	57.15
632.986	57.19
633.318	57.22
633.651	57.2
633.984	57.19
634.316	57.2
634.649	57.21
634.981	57.22
635.313	57.25
635.646	57.27
635.978	57.27
636.31	57.27
636.643	57.26
636.975	57.27
637.307	57.31
637.639	57.32
637.971	57.36
638.303	57.38
638.635	57.37
638.967	57.38
639.299	57.4
639.631	57.41
639.963	57.41
640.295	57.41
640.626	57.47
640.958	57.49
641.29	57.51
641.621	57.51
641.953	57.56
642.285	57.58
642.616	57.6
642.948	57.64
643.279	57.68
643.61	57.7
643.942	57.73
644.273	57.72
644.604	57.72
644.936	57.71
645.267	57.72
645.598	57.76
645.929	57.78
646.26	57.78
646.591	57.82
646.922	57.86
647.253	57.88
647.584	57.86
647.915	57.87
648.245	57.9
648.576	57.93
648.907	57.92
649.238	57.93
649.568	57.92
649.899	57.95
650.229	57.98
650.56	58.03
650.89	58.06
651.221	58.08
651.551	58.11
651.882	58.15
652.212	58.17
652.542	58.16
652.872	58.19
653.203	58.27
653.533	58.28
653.863	58.31
654.193	58.35
654.523	58.4
654.853	58.44
655.183	58.45
655.513	58.45
655.843	58.49
656.172	58.51
656.502	58.56
656.832	58.57
657.162	58.58
657.491	58.59
657.821	58.6
658.15	58.62
658.48	58.64
658.809	58.66
659.139	58.69
659.468	58.68
659.798	58.69
660.127	58.67
660.456	58.68
660.785	58.69
661.115	58.69
661.444	58.68
661.773	58.69
662.102	58.72
662.431	58.75
662.76	58.74
663.089	58.75
663.418	58.75
663.747	58.77
664.076	58.77
664.404	58.78
664.733	58.8
665.062	58.81
665.39	58.81
665.719	58.83
666.048	58.84
