Data from UWBM37214_Reflection_00005.txt Node
Date: Sun May 02 14:03:51 EDT 2021
User: vgr7
Spectrometer: USB2G7710
Scans to average: 10
Trigger mode: 4
Integration Time (sec): 1.000000E-1
Electric dark correction enabled: true
Boxcar width: 20
XAxis mode: Wavelengths
Number of Pixels in Spectrum: 2048
>>>>>Begin Spectral Data<<<<<
177.721	144.74
178.105	296.61
178.488	-4600
178.871	743.75
179.254	217.34
179.636	167.82
180.019	104.11
180.402	56.88
180.785	39.35
181.168	38.2
181.55	25.39
181.933	32.26
182.316	25.96
182.698	18.77
183.081	13.67
183.463	9.17
183.846	13.04
184.228	16.65
184.611	15.96
184.993	15.98
185.376	17.08
185.758	19.3
186.14	21.52
186.522	20.53
186.904	15.39
187.287	13.75
187.669	14.47
188.051	9.99
188.433	9.11
188.815	7.26
189.197	6.74
189.579	6.28
189.961	6.97
190.342	5.92
190.724	6.15
191.106	7.94
191.488	7.7
191.869	6.54
192.251	4.48
192.633	5.48
193.014	3.41
193.396	0.38
193.777	-0.28
194.159	0.66
194.54	-0.86
194.922	-1.52
195.303	-3.53
195.684	-5.12
196.065	-4.24
196.447	-2.48
196.828	-4.69
197.209	-5.14
197.59	-9.07
197.971	-9.49
198.352	-7.49
198.733	-5.96
199.114	-4.2
199.495	-4.5
199.876	-5.81
200.257	-5.07
200.638	-5.26
201.018	-4.48
201.399	-4.01
201.78	-4.72
202.16	-5.58
202.541	-4.14
202.922	-3.46
203.302	-3.47
203.683	-2.03
204.063	-1.71
204.444	-0.93
204.824	-1.82
205.204	-2.81
205.585	-1.31
205.965	0.24
206.345	-0.03
206.725	-0.76
207.106	-1.03
207.486	-1.09
207.866	2.01
208.246	2.38
208.626	2.04
209.006	3.79
209.386	3.66
209.766	2.28
210.145	2.56
210.525	2.48
210.905	3.78
211.285	2
211.664	1.96
212.044	0.15
212.424	1.04
212.803	1.38
213.183	1.72
213.562	3.03
213.942	2.09
214.321	1.24
214.701	-0.84
215.08	-1
215.459	-0.25
215.838	-1.21
216.218	-1.9
216.597	-3.21
216.976	-3.67
217.355	-4.21
217.734	-3.1
218.113	-2.93
218.492	-3.28
218.871	-3.49
219.25	-2.32
219.629	-1.89
220.008	-2.34
220.387	-2.87
220.766	-1.63
221.144	-3.03
221.523	-2.22
221.902	-2.27
222.28	-2.37
222.659	-2.19
223.037	-3.05
223.416	-3.53
223.794	-3.35
224.173	-3.21
224.551	-3.94
224.929	-2.6
225.308	-1.77
225.686	-1.61
226.064	-1.32
226.442	-1.5
226.821	-0.36
227.199	0.08
227.577	0.4
227.955	0.74
228.333	1.01
228.711	0.91
229.089	0.29
229.467	0.17
229.845	0.21
230.222	0.62
230.6	0.58
230.978	0.2
231.356	0.51
231.733	0.7
232.111	0.68
232.488	0.83
232.866	0.87
233.243	0.78
233.621	0.86
233.998	1.07
234.376	1.46
234.753	1.35
235.13	1.59
235.508	1.97
235.885	2.23
236.262	2.24
236.639	2.52
237.016	2.49
237.393	2.61
237.77	2.74
238.147	2.78
238.524	2.95
238.901	2.95
239.278	3.09
239.655	3.24
240.032	3.32
240.409	3.27
240.785	3.31
241.162	3.37
241.539	3.42
241.915	3.54
242.292	3.56
242.668	3.58
243.045	3.61
243.421	3.59
243.798	3.62
244.174	3.69
244.551	3.75
244.927	3.77
245.303	3.78
245.679	3.78
246.056	3.75
246.432	3.78
246.808	3.78
247.184	3.79
247.56	3.84
247.936	3.83
248.312	3.83
248.688	3.85
249.064	3.86
249.44	3.84
249.815	3.79
250.191	3.77
250.567	3.75
250.943	3.7
251.318	3.67
251.694	3.68
252.069	3.67
252.445	3.64
252.82	3.64
253.196	3.61
253.571	3.61
253.947	3.59
254.322	3.58
254.697	3.57
255.073	3.54
255.448	3.55
255.823	3.53
256.198	3.51
256.573	3.47
256.948	3.46
257.323	3.41
257.698	3.37
258.073	3.34
258.448	3.29
258.823	3.29
259.198	3.27
259.573	3.24
259.948	3.22
260.322	3.23
260.697	3.22
261.072	3.22
261.446	3.23
261.821	3.21
262.195	3.2
262.57	3.18
262.944	3.16
263.319	3.19
263.693	3.22
264.067	3.2
264.442	3.19
264.816	3.19
265.19	3.21
265.564	3.22
265.938	3.22
266.313	3.23
266.687	3.23
267.061	3.23
267.435	3.23
267.809	3.22
268.183	3.2
268.556	3.2
268.93	3.2
269.304	3.21
269.678	3.21
270.051	3.21
270.425	3.2
270.799	3.19
271.172	3.21
271.546	3.22
271.919	3.24
272.293	3.23
272.666	3.23
273.04	3.25
273.413	3.29
273.787	3.31
274.16	3.31
274.533	3.31
274.906	3.32
275.279	3.32
275.653	3.32
276.026	3.33
276.399	3.34
276.772	3.35
277.145	3.35
277.518	3.36
277.891	3.37
278.263	3.35
278.636	3.35
279.009	3.32
279.382	3.33
279.755	3.34
280.127	3.35
280.5	3.35
280.872	3.35
281.245	3.35
281.617	3.36
281.99	3.36
282.362	3.35
282.735	3.34
283.107	3.35
283.479	3.35
283.852	3.36
284.224	3.36
284.596	3.34
284.968	3.34
285.34	3.34
285.713	3.34
286.085	3.35
286.457	3.33
286.829	3.33
287.201	3.33
287.572	3.33
287.944	3.33
288.316	3.31
288.688	3.3
289.06	3.3
289.431	3.3
289.803	3.31
290.175	3.31
290.546	3.32
290.918	3.32
291.289	3.33
291.661	3.33
292.032	3.31
292.403	3.31
292.775	3.31
293.146	3.31
293.517	3.31
293.889	3.31
294.26	3.31
294.631	3.31
295.002	3.33
295.373	3.31
295.744	3.32
296.115	3.31
296.486	3.32
296.857	3.32
297.228	3.33
297.599	3.33
297.97	3.34
298.34	3.34
298.711	3.34
299.082	3.35
299.452	3.36
299.823	3.36
300.194	3.36
300.564	3.36
300.935	3.36
301.305	3.36
301.676	3.35
302.046	3.36
302.416	3.36
302.787	3.34
303.157	3.34
303.527	3.35
303.897	3.34
304.267	3.34
304.637	3.33
305.008	3.33
305.378	3.32
305.748	3.31
306.117	3.3
306.487	3.3
306.857	3.3
307.227	3.29
307.597	3.3
307.967	3.29
308.336	3.3
308.706	3.3
309.076	3.29
309.445	3.3
309.815	3.3
310.184	3.27
310.554	3.27
310.923	3.26
311.293	3.25
311.662	3.24
312.031	3.23
312.401	3.23
312.77	3.23
313.139	3.23
313.508	3.21
313.877	3.21
314.246	3.2
314.616	3.2
314.985	3.2
315.353	3.21
315.722	3.19
316.091	3.2
316.46	3.18
316.829	3.18
317.198	3.18
317.567	3.17
317.935	3.19
318.304	3.19
318.672	3.19
319.041	3.2
319.41	3.19
319.778	3.19
320.147	3.18
320.515	3.17
320.883	3.16
321.252	3.17
321.62	3.16
321.988	3.16
322.357	3.17
322.725	3.16
323.093	3.16
323.461	3.15
323.829	3.16
324.197	3.16
324.565	3.15
324.933	3.14
325.301	3.14
325.669	3.15
326.037	3.15
326.405	3.16
326.772	3.16
327.14	3.17
327.508	3.15
327.875	3.15
328.243	3.15
328.61	3.15
328.978	3.15
329.346	3.15
329.713	3.14
330.08	3.14
330.448	3.12
330.815	3.12
331.182	3.11
331.55	3.11
331.917	3.11
332.284	3.09
332.651	3.09
333.018	3.08
333.385	3.07
333.752	3.06
334.119	3.05
334.486	3.05
334.853	3.05
335.22	3.06
335.587	3.06
335.954	3.06
336.32	3.05
336.687	3.04
337.054	3.04
337.42	3.04
337.787	3.04
338.153	3.04
338.52	3.04
338.886	3.02
339.253	3.02
339.619	3.02
339.986	3.02
340.352	3.03
340.718	3.02
341.084	3.02
341.451	3.01
341.817	3.01
342.183	3.01
342.549	3.01
342.915	3.01
343.281	3.02
343.647	3.03
344.013	3.01
344.379	3.02
344.745	3.02
345.11	3.01
345.476	3.02
345.842	3.03
346.208	3.04
346.573	3.03
346.939	3.03
347.304	3.05
347.67	3.04
348.035	3.05
348.401	3.05
348.766	3.05
349.132	3.05
349.497	3.06
349.862	3.05
350.228	3.05
350.593	3.05
350.958	3.05
351.323	3.04
351.688	3.06
352.053	3.06
352.418	3.06
352.783	3.05
353.148	3.05
353.513	3.06
353.878	3.06
354.243	3.06
354.608	3.06
354.972	3.07
355.337	3.08
355.702	3.08
356.066	3.08
356.431	3.08
356.795	3.08
357.16	3.07
357.524	3.08
357.889	3.08
358.253	3.07
358.618	3.06
358.982	3.06
359.346	3.05
359.71	3.06
360.075	3.06
360.439	3.06
360.803	3.06
361.167	3.06
361.531	3.06
361.895	3.06
362.259	3.05
362.623	3.04
362.987	3.03
363.351	3.03
363.714	3.03
364.078	3.03
364.442	3.02
364.806	3.03
365.169	3.03
365.533	3.04
365.896	3.04
366.26	3.04
366.623	3.04
366.987	3.03
367.35	3.03
367.714	3.03
368.077	3.03
368.44	3.03
368.803	3.03
369.167	3.03
369.53	3.03
369.893	3.03
370.256	3.03
370.619	3.03
370.982	3.04
371.345	3.04
371.708	3.04
372.071	3.05
372.434	3.05
372.797	3.05
373.159	3.06
373.522	3.07
373.885	3.08
374.247	3.08
374.61	3.07
374.973	3.07
375.335	3.07
375.698	3.07
376.06	3.07
376.423	3.07
376.785	3.07
377.147	3.07
377.51	3.08
377.872	3.08
378.234	3.08
378.596	3.08
378.958	3.09
379.321	3.08
379.683	3.08
380.045	3.08
380.407	3.09
380.769	3.09
381.13	3.09
381.492	3.09
381.854	3.09
382.216	3.09
382.578	3.09
382.939	3.09
383.301	3.1
383.663	3.1
384.024	3.1
384.386	3.09
384.747	3.09
385.109	3.09
385.47	3.1
385.832	3.09
386.193	3.09
386.554	3.1
386.916	3.1
387.277	3.1
387.638	3.1
387.999	3.1
388.36	3.1
388.721	3.1
389.082	3.1
389.443	3.1
389.804	3.1
390.165	3.11
390.526	3.11
390.887	3.11
391.248	3.11
391.609	3.11
391.969	3.12
392.33	3.12
392.691	3.12
393.051	3.12
393.412	3.13
393.772	3.13
394.133	3.13
394.493	3.13
394.854	3.13
395.214	3.13
395.574	3.13
395.935	3.13
396.295	3.13
396.655	3.14
397.015	3.14
397.376	3.14
397.736	3.14
398.096	3.14
398.456	3.15
398.816	3.15
399.176	3.15
399.535	3.16
399.895	3.16
400.255	3.16
400.615	3.16
400.975	3.16
401.334	3.16
401.694	3.16
402.054	3.16
402.413	3.16
402.773	3.16
403.132	3.16
403.492	3.16
403.851	3.17
404.211	3.17
404.57	3.18
404.929	3.18
405.288	3.18
405.648	3.19
406.007	3.19
406.366	3.19
406.725	3.19
407.084	3.19
407.443	3.19
407.802	3.19
408.161	3.2
408.52	3.2
408.879	3.2
409.238	3.21
409.596	3.21
409.955	3.22
410.314	3.21
410.673	3.22
411.031	3.22
411.39	3.23
411.748	3.23
412.107	3.24
412.465	3.25
412.824	3.27
413.182	3.29
413.54	3.31
413.899	3.34
414.257	3.37
414.615	3.41
414.974	3.43
415.332	3.47
415.69	3.5
416.048	3.53
416.406	3.57
416.764	3.59
417.122	3.62
417.48	3.65
417.838	3.68
418.195	3.7
418.553	3.72
418.911	3.74
419.269	3.75
419.626	3.75
419.984	3.74
420.342	3.74
420.699	3.73
421.057	3.71
421.414	3.7
421.772	3.7
422.129	3.69
422.486	3.69
422.844	3.69
423.201	3.69
423.558	3.69
423.915	3.69
424.273	3.69
424.63	3.69
424.987	3.69
425.344	3.69
425.701	3.69
426.058	3.69
426.415	3.7
426.772	3.7
427.128	3.7
427.485	3.69
427.842	3.68
428.199	3.67
428.555	3.66
428.912	3.64
429.269	3.62
429.625	3.6
429.982	3.57
430.338	3.55
430.695	3.53
431.051	3.51
431.407	3.49
431.764	3.48
432.12	3.46
432.476	3.45
432.832	3.45
433.189	3.45
433.545	3.45
433.901	3.46
434.257	3.48
434.613	3.5
434.969	3.52
435.325	3.54
435.681	3.57
436.036	3.59
436.392	3.61
436.748	3.62
437.104	3.63
437.459	3.65
437.815	3.67
438.171	3.69
438.526	3.71
438.882	3.74
439.237	3.77
439.593	3.8
439.948	3.83
440.304	3.87
440.659	3.89
441.014	3.91
441.369	3.94
441.725	3.95
442.08	3.97
442.435	3.98
442.79	3.99
443.145	4
443.5	4
443.855	4
444.21	4
444.565	4
444.92	4
445.275	3.99
445.629	3.99
445.984	3.98
446.339	3.97
446.693	3.96
447.048	3.95
447.403	3.93
447.757	3.91
448.112	3.9
448.466	3.88
448.82	3.86
449.175	3.84
449.529	3.82
449.883	3.81
450.238	3.79
450.592	3.79
450.946	3.78
451.3	3.78
451.654	3.79
452.008	3.79
452.362	3.8
452.716	3.8
453.07	3.8
453.424	3.8
453.778	3.79
454.132	3.78
454.486	3.77
454.839	3.76
455.193	3.74
455.547	3.73
455.9	3.7
456.254	3.69
456.607	3.66
456.961	3.64
457.314	3.62
457.668	3.61
458.021	3.61
458.375	3.6
458.728	3.6
459.081	3.6
459.434	3.61
459.787	3.61
460.141	3.62
460.494	3.63
460.847	3.63
461.2	3.64
461.553	3.65
461.906	3.65
462.259	3.65
462.611	3.65
462.964	3.65
463.317	3.66
463.67	3.66
464.022	3.67
464.375	3.67
464.728	3.68
465.08	3.68
465.433	3.68
465.785	3.67
466.138	3.65
466.49	3.64
466.843	3.62
467.195	3.6
467.547	3.58
467.899	3.55
468.252	3.53
468.604	3.5
468.956	3.48
469.308	3.47
469.66	3.47
470.012	3.46
470.364	3.46
470.716	3.46
471.068	3.47
471.42	3.49
471.772	3.5
472.123	3.51
472.475	3.52
472.827	3.53
473.178	3.53
473.53	3.54
473.882	3.55
474.233	3.57
474.585	3.6
474.936	3.65
475.288	3.73
475.639	3.82
475.99	3.94
476.342	4.06
476.693	4.2
477.044	4.34
477.395	4.49
477.746	4.64
478.097	4.78
478.448	4.93
478.8	5.08
479.15	5.22
479.501	5.35
479.852	5.47
480.203	5.59
480.554	5.7
480.905	5.8
481.255	5.9
481.606	6
481.957	6.09
482.307	6.17
482.658	6.25
483.009	6.33
483.359	6.4
483.709	6.48
484.06	6.54
484.41	6.61
484.761	6.68
485.111	6.75
485.461	6.81
485.811	6.86
486.162	6.92
486.512	6.96
486.862	7
487.212	7.02
487.562	7.04
487.912	7.05
488.262	7.06
488.612	7.05
488.961	7.04
489.311	7
489.661	6.94
490.011	6.86
490.36	6.77
490.71	6.67
491.06	6.55
491.409	6.43
491.759	6.3
492.108	6.17
492.458	6.03
492.807	5.88
493.157	5.74
493.506	5.6
493.855	5.47
494.204	5.34
494.554	5.22
494.903	5.11
495.252	5.01
495.601	4.9
495.95	4.8
496.299	4.7
496.648	4.61
496.997	4.53
497.346	4.45
497.695	4.37
498.043	4.29
498.392	4.21
498.741	4.14
499.09	4.07
499.438	4
499.787	3.94
500.135	3.88
500.484	3.82
500.832	3.77
501.181	3.74
501.529	3.71
501.878	3.69
502.226	3.68
502.574	3.68
502.923	3.67
503.271	3.67
503.619	3.66
503.967	3.66
504.315	3.65
504.663	3.65
505.011	3.64
505.359	3.63
505.707	3.63
506.055	3.62
506.403	3.62
506.751	3.62
507.098	3.62
507.446	3.63
507.794	3.63
508.141	3.64
508.489	3.64
508.837	3.65
509.184	3.66
509.531	3.66
509.879	3.67
510.226	3.68
510.574	3.7
510.921	3.71
511.268	3.73
511.616	3.75
511.963	3.76
512.31	3.78
512.657	3.79
513.004	3.81
513.351	3.82
513.698	3.83
514.045	3.84
514.392	3.84
514.739	3.84
515.086	3.84
515.432	3.84
515.779	3.83
516.126	3.83
516.473	3.83
516.819	3.83
517.166	3.83
517.512	3.84
517.859	3.85
518.205	3.86
518.552	3.88
518.898	3.91
519.245	3.94
519.591	3.98
519.937	4.04
520.283	4.12
520.629	4.2
520.976	4.29
521.322	4.39
521.668	4.48
522.014	4.59
522.36	4.69
522.706	4.8
523.052	4.89
523.398	4.98
523.743	5.06
524.089	5.13
524.435	5.18
524.781	5.24
525.126	5.29
525.472	5.34
525.817	5.38
526.163	5.42
526.509	5.45
526.854	5.49
527.199	5.53
527.545	5.56
527.89	5.6
528.235	5.64
528.581	5.68
528.926	5.72
529.271	5.75
529.616	5.78
529.961	5.81
530.306	5.83
530.651	5.85
530.996	5.87
531.341	5.88
531.686	5.88
532.031	5.88
532.376	5.88
532.721	5.89
533.065	5.89
533.41	5.89
533.755	5.89
534.099	5.88
534.444	5.86
534.788	5.83
535.133	5.79
535.477	5.75
535.822	5.71
536.166	5.66
536.51	5.6
536.855	5.54
537.199	5.47
537.543	5.41
537.887	5.35
538.231	5.3
538.576	5.25
538.92	5.2
539.264	5.15
539.608	5.1
539.951	5.05
540.295	5
540.639	4.95
540.983	4.89
541.327	4.84
541.671	4.78
542.014	4.72
542.358	4.67
542.701	4.63
543.045	4.6
543.389	4.58
543.732	4.56
544.075	4.54
544.419	4.52
544.762	4.51
545.105	4.5
545.449	4.49
545.792	4.48
546.135	4.48
546.478	4.46
546.821	4.44
547.165	4.41
547.508	4.38
547.851	4.34
548.194	4.29
548.536	4.24
548.879	4.18
549.222	4.13
549.565	4.06
549.908	4
550.25	3.94
550.593	3.89
550.936	3.86
551.278	3.82
551.621	3.79
551.963	3.77
552.306	3.74
552.648	3.72
552.991	3.7
553.333	3.69
553.675	3.68
554.017	3.68
554.36	3.67
554.702	3.68
555.044	3.68
555.386	3.69
555.728	3.7
556.07	3.72
556.412	3.73
556.754	3.74
557.096	3.74
557.438	3.74
557.78	3.74
558.121	3.74
558.463	3.73
558.805	3.73
559.147	3.73
559.488	3.73
559.83	3.73
560.171	3.73
560.513	3.73
560.854	3.74
561.196	3.74
561.537	3.74
561.878	3.74
562.22	3.74
562.561	3.74
562.902	3.74
563.243	3.74
563.584	3.74
563.925	3.74
564.266	3.74
564.607	3.74
564.948	3.75
565.289	3.75
565.63	3.75
565.971	3.76
566.312	3.76
566.653	3.77
566.993	3.77
567.334	3.77
567.675	3.78
568.015	3.78
568.356	3.78
568.696	3.78
569.037	3.78
569.377	3.78
569.718	3.78
570.058	3.78
570.398	3.77
570.739	3.78
571.079	3.78
571.419	3.78
571.759	3.78
572.099	3.78
572.439	3.78
572.779	3.78
573.119	3.78
573.459	3.78
573.799	3.77
574.139	3.77
574.479	3.77
574.819	3.78
575.158	3.78
575.498	3.78
575.838	3.77
576.177	3.77
576.517	3.77
576.856	3.77
577.196	3.78
577.535	3.78
577.875	3.77
578.214	3.77
578.553	3.77
578.893	3.77
579.232	3.77
579.571	3.77
579.91	3.77
580.25	3.76
580.589	3.76
580.928	3.76
581.267	3.76
581.606	3.76
581.945	3.75
582.283	3.75
582.622	3.76
582.961	3.76
583.3	3.76
583.639	3.76
583.977	3.77
584.316	3.77
584.654	3.77
584.993	3.76
585.332	3.77
585.67	3.77
586.008	3.77
586.347	3.78
586.685	3.78
587.024	3.78
587.362	3.79
587.7	3.79
588.038	3.79
588.376	3.79
588.715	3.78
589.053	3.78
589.391	3.79
589.729	3.79
590.067	3.79
590.404	3.79
590.742	3.79
591.08	3.8
591.418	3.8
591.756	3.8
592.093	3.81
592.431	3.81
592.769	3.81
593.106	3.81
593.444	3.82
593.781	3.81
594.119	3.82
594.456	3.81
594.793	3.82
595.131	3.82
595.468	3.81
595.805	3.82
596.143	3.82
596.48	3.82
596.817	3.82
597.154	3.82
597.491	3.82
597.828	3.82
598.165	3.82
598.502	3.83
598.839	3.83
599.176	3.83
599.512	3.83
599.849	3.83
600.186	3.83
600.523	3.83
600.859	3.83
601.196	3.84
601.532	3.84
601.869	3.84
602.205	3.84
602.542	3.85
602.878	3.85
603.215	3.85
603.551	3.85
603.887	3.85
604.223	3.85
604.56	3.85
604.896	3.85
605.232	3.86
605.568	3.86
605.904	3.86
606.24	3.86
606.576	3.86
606.912	3.85
607.248	3.85
607.583	3.85
607.919	3.85
608.255	3.85
608.591	3.85
608.926	3.85
609.262	3.85
609.597	3.85
609.933	3.85
610.268	3.86
610.604	3.86
610.939	3.86
611.275	3.86
611.61	3.86
611.945	3.86
612.281	3.86
612.616	3.86
612.951	3.86
613.286	3.86
613.621	3.86
613.956	3.86
614.291	3.86
614.626	3.86
614.961	3.87
615.296	3.87
615.631	3.87
615.966	3.88
616.3	3.88
616.635	3.88
616.97	3.88
617.304	3.88
617.639	3.88
617.973	3.88
618.308	3.89
618.642	3.88
618.977	3.88
619.311	3.89
619.646	3.89
619.98	3.89
620.314	3.9
620.648	3.9
620.983	3.91
621.317	3.92
621.651	3.92
621.985	3.93
622.319	3.94
622.653	3.95
622.987	3.95
623.321	3.95
623.655	3.96
623.988	3.95
624.322	3.96
624.656	3.96
624.99	3.97
625.323	3.98
625.657	3.98
625.99	3.98
626.324	3.98
626.657	3.98
626.991	3.98
627.324	3.98
627.658	3.98
627.991	3.98
628.324	3.99
628.657	3.99
628.991	3.99
629.324	3.99
629.657	3.99
629.99	4
630.323	4.01
630.656	4.01
630.989	4.01
631.322	4.01
631.655	4.02
631.987	4.02
632.32	4.02
632.653	4.02
632.986	4.02
633.318	4.03
633.651	4.03
633.984	4.03
634.316	4.04
634.649	4.03
634.981	4.04
635.313	4.05
635.646	4.04
635.978	4.04
636.31	4.04
636.643	4.05
636.975	4.05
637.307	4.06
637.639	4.07
637.971	4.07
638.303	4.06
638.635	4.06
638.967	4.06
639.299	4.07
639.631	4.07
639.963	4.08
640.295	4.08
640.626	4.08
640.958	4.08
641.29	4.09
641.621	4.09
641.953	4.09
642.285	4.09
642.616	4.09
642.948	4.09
643.279	4.09
643.61	4.09
643.942	4.09
644.273	4.09
644.604	4.11
644.936	4.11
645.267	4.11
645.598	4.11
645.929	4.11
646.26	4.12
646.591	4.13
646.922	4.13
647.253	4.13
647.584	4.14
647.915	4.14
648.245	4.14
648.576	4.14
648.907	4.14
649.238	4.14
649.568	4.14
649.899	4.13
650.229	4.14
650.56	4.13
650.89	4.13
651.221	4.13
651.551	4.13
651.882	4.14
652.212	4.14
652.542	4.14
652.872	4.14
653.203	4.15
653.533	4.15
653.863	4.16
654.193	4.17
654.523	4.17
654.853	4.18
655.183	4.19
655.513	4.19
655.843	4.2
656.172	4.2
656.502	4.21
656.832	4.22
657.162	4.22
657.491	4.22
657.821	4.22
658.15	4.21
658.48	4.22
658.809	4.22
659.139	4.23
659.468	4.23
659.798	4.23
660.127	4.24
660.456	4.24
660.785	4.24
661.115	4.25
661.444	4.26
661.773	4.26
662.102	4.27
662.431	4.27
662.76	4.28
663.089	4.29
663.418	4.31
663.747	4.31
664.076	4.33
664.404	4.33
664.733	4.34
665.062	4.35
665.39	4.35
665.719	4.35
666.048	4.36
666.376	4.36
666.705	4.37
667.033	4.37
667.362	4.38
667.69	4.38
668.018	4.39
668.347	4.4
668.675	4.4
669.003	4.41
669.331	4.41
669.659	4.42
669.987	4.41
670.315	4.42
670.643	4.43
670.971	4.44
671.299	4.45
671.627	4.45
671.955	4.45
672.283	4.45
672.61	4.45
672.938	4.45
673.266	4.46
673.593	4.46
673.921	4.46
674.249	4.47
674.576	4.46
674.904	4.46
675.231	4.47
675.558	4.47
675.886	4.48
676.213	4.48
676.54	4.48
676.867	4.48
677.195	4.48
677.522	4.47
677.849	4.48
678.176	4.48
678.503	4.47
678.83	4.48
679.157	4.49
679.484	4.49
679.81	4.49
680.137	4.5
680.464	4.5
680.791	4.51
681.117	4.52
