Data from UWBM91361_Reflection_00008.txt Node
Date: Sun May 02 12:21:46 EDT 2021
User: vgr7
Spectrometer: USB2G7710
Scans to average: 10
Trigger mode: 4
Integration Time (sec): 1.000000E-1
Electric dark correction enabled: true
Boxcar width: 10
XAxis mode: Wavelengths
Number of Pixels in Spectrum: 2048
>>>>>Begin Spectral Data<<<<<
177.721	20.55
178.105	141.18
178.488	91.98
178.871	52.17
179.254	51.72
179.636	-54.55
180.019	50.19
180.402	141.67
180.785	38.56
181.168	82.98
181.55	35.78
181.933	-32.23
182.316	23.08
182.698	49.57
183.081	88.24
183.463	13.04
183.846	29.49
184.228	3.47
184.611	20.79
184.993	32.28
185.376	40.99
185.758	22.65
186.14	16.84
186.522	17.77
186.904	15.16
187.287	19.52
187.669	21.53
188.051	11.04
188.433	12.37
188.815	12.89
189.197	11.52
189.579	10.83
189.961	12.7
190.342	7.27
190.724	14.13
191.106	10.85
191.488	16.7
191.869	12.55
192.251	14.66
192.633	9.18
193.014	8.28
193.396	6.5
193.777	7.08
194.159	5.52
194.54	0.33
194.922	-0.57
195.303	1.87
195.684	4.44
196.065	7.76
196.447	3.4
196.828	3.89
197.209	2.34
197.59	1.43
197.971	3.03
198.352	9.88
198.733	12.63
199.114	12.63
199.495	7.06
199.876	5.3
200.257	1.38
200.638	0.94
201.018	1.43
201.399	-0.97
201.78	-2.08
202.16	1.18
202.541	1.87
202.922	-1.17
203.302	-6.35
203.683	-8.08
204.063	-9.04
204.444	-2.25
204.824	0.71
205.204	1.27
205.585	-0.5
205.965	-5.61
206.345	-11.05
206.725	-19.62
207.106	-18.5
207.486	-15.82
207.866	-9.4
208.246	-8.5
208.626	-4.17
209.006	-6.31
209.386	-4.47
209.766	-2.74
210.145	-5.63
210.525	-9.4
210.905	-6.2
211.285	-7.09
211.664	-9.06
212.044	-7.85
212.424	-4.61
212.803	-4.2
213.183	1.88
213.562	2.67
213.942	2.67
214.321	1.83
214.701	-0.79
215.08	1.87
215.459	0.27
215.838	-4.67
216.218	-0.82
216.597	-0.99
216.976	-0.82
217.355	-0.26
217.734	-2.91
218.113	-6.1
218.492	-2.38
218.871	2.15
219.25	7.39
219.629	8.04
220.008	8.38
220.387	4
220.766	-0.86
221.144	-5.74
221.523	-3.24
221.902	-0.23
222.28	0.67
222.659	0.63
223.037	-0.47
223.416	1.23
223.794	3.39
224.173	0.53
224.551	-0.83
224.929	-1.4
225.308	1.1
225.686	1.77
226.064	2.79
226.442	3.72
226.821	1.75
227.199	-0.31
227.577	-0.89
227.955	-1.09
228.333	-1.15
228.711	-0.7
229.089	0.03
229.467	-0.28
229.845	0.31
230.222	1.6
230.6	2.68
230.978	2.97
231.356	2.76
231.733	2.34
232.111	3.61
232.488	3.43
232.866	3.44
233.243	2.85
233.621	2.98
233.998	3.1
234.376	3.03
234.753	3.72
235.13	4.47
235.508	5.3
235.885	5.67
236.262	6.17
236.639	6.82
237.016	6.63
237.393	6.91
237.77	6.48
238.147	5.83
238.524	6.03
238.901	6.35
239.278	6.07
239.655	6.11
240.032	6
240.409	6.12
240.785	6.24
241.162	6.15
241.539	6.2
241.915	6.29
242.292	6.18
242.668	5.9
243.045	5.81
243.421	5.68
243.798	5.59
244.174	5.43
244.551	5.36
244.927	5.37
245.303	5.26
245.679	5.37
246.056	5.33
246.432	5.23
246.808	5.09
247.184	5.13
247.56	5.12
247.936	5.05
248.312	5.03
248.688	5.01
249.064	5.02
249.44	5.03
249.815	5.02
250.191	5.02
250.567	5.05
250.943	4.99
251.318	4.91
251.694	4.89
252.069	4.89
252.445	4.81
252.82	4.71
253.196	4.74
253.571	4.68
253.947	4.87
254.322	4.93
254.697	5.02
255.073	5.03
255.448	4.96
255.823	4.87
256.198	4.79
256.573	4.69
256.948	4.64
257.323	4.59
257.698	4.58
258.073	4.56
258.448	4.58
258.823	4.58
259.198	4.68
259.573	4.68
259.948	4.68
260.322	4.67
260.697	4.67
261.072	4.65
261.446	4.59
261.821	4.53
262.195	4.47
262.57	4.4
262.944	4.39
263.319	4.4
263.693	4.46
264.067	4.51
264.442	4.52
264.816	4.48
265.19	4.44
265.564	4.45
265.938	4.42
266.313	4.4
266.687	4.33
267.061	4.24
267.435	4.23
267.809	4.24
268.183	4.21
268.556	4.26
268.93	4.27
269.304	4.23
269.678	4.2
270.051	4.17
270.425	4.21
270.799	4.22
271.172	4.16
271.546	4.14
271.919	4.17
272.293	4.16
272.666	4.18
273.04	4.2
273.413	4.05
273.787	4.08
274.16	4.09
274.533	4.1
274.906	4.1
275.279	4.12
275.653	4.1
276.026	4.09
276.399	4.05
276.772	4.05
277.145	4.13
277.518	4.16
277.891	4.2
278.263	4.18
278.636	4.2
279.009	4.22
279.382	4.2
279.755	4.13
280.127	4.2
280.5	4.22
280.872	4.17
281.245	4.33
281.617	4.36
281.99	4.4
282.362	4.44
282.735	4.43
283.107	4.43
283.479	4.49
283.852	4.49
284.224	4.51
284.596	4.5
284.968	4.5
285.34	4.5
285.713	4.57
286.085	4.56
286.457	4.57
286.829	4.58
287.201	4.6
287.572	4.65
287.944	4.65
288.316	4.69
288.688	4.76
289.06	4.76
289.431	4.75
289.803	4.74
290.175	4.8
290.546	4.87
290.918	4.95
291.289	4.97
291.661	5.05
292.032	5.06
292.403	5.12
292.775	5.18
293.146	5.24
293.517	5.27
293.889	5.36
294.26	5.42
294.631	5.51
295.002	5.58
295.373	5.66
295.744	5.74
296.115	5.77
296.486	5.83
296.857	5.89
297.228	5.98
297.599	6.04
297.97	6.07
298.34	6.14
298.711	6.18
299.082	6.21
299.452	6.25
299.823	6.34
300.194	6.42
300.564	6.46
300.935	6.52
301.305	6.58
301.676	6.63
302.046	6.71
302.416	6.78
302.787	6.84
303.157	6.88
303.527	6.98
303.897	7.08
304.267	7.18
304.637	7.3
305.008	7.41
305.378	7.51
305.748	7.63
306.117	7.65
306.487	7.72
306.857	7.8
307.227	7.92
307.597	8.03
307.967	8.11
308.336	8.19
308.706	8.32
309.076	8.45
309.445	8.55
309.815	8.61
310.184	8.68
310.554	8.76
310.923	8.82
311.293	8.88
311.662	8.93
312.031	8.99
312.401	9.04
312.77	9.05
313.139	9.14
313.508	9.19
313.877	9.29
314.246	9.37
314.616	9.47
314.985	9.53
315.353	9.59
315.722	9.71
316.091	9.85
316.46	9.87
316.829	9.98
317.198	10.08
317.567	10.16
317.935	10.29
318.304	10.4
318.672	10.54
319.041	10.57
319.41	10.68
319.778	10.78
320.147	10.9
320.515	10.99
320.883	11.08
321.252	11.18
321.62	11.26
321.988	11.35
322.357	11.43
322.725	11.5
323.093	11.58
323.461	11.62
323.829	11.65
324.197	11.76
324.565	11.77
324.933	11.8
325.301	11.88
325.669	11.92
326.037	11.98
326.405	12
326.772	12.05
327.14	12.07
327.508	12.07
327.875	12.1
328.243	12.17
328.61	12.19
328.978	12.22
329.346	12.23
329.713	12.27
330.08	12.35
330.448	12.39
330.815	12.43
331.182	12.47
331.55	12.52
331.917	12.53
332.284	12.56
332.651	12.61
333.018	12.63
333.385	12.67
333.752	12.73
334.119	12.77
334.486	12.82
334.853	12.88
335.22	12.94
335.587	12.96
335.954	13
336.32	13.03
336.687	13.06
337.054	13.12
337.42	13.15
337.787	13.14
338.153	13.21
338.52	13.26
338.886	13.29
339.253	13.29
339.619	13.29
339.986	13.36
340.352	13.4
340.718	13.46
341.084	13.46
341.451	13.46
341.817	13.47
342.183	13.52
342.549	13.56
342.915	13.59
343.281	13.65
343.647	13.66
344.013	13.68
344.379	13.7
344.745	13.71
345.11	13.73
345.476	13.78
345.842	13.8
346.208	13.81
346.573	13.82
346.939	13.87
347.304	13.88
347.67	13.86
348.035	13.86
348.401	13.84
348.766	13.85
349.132	13.87
349.497	13.91
349.862	13.89
350.228	13.86
350.593	13.84
350.958	13.82
351.323	13.81
351.688	13.79
352.053	13.79
352.418	13.81
352.783	13.78
353.148	13.75
353.513	13.7
353.878	13.68
354.243	13.66
354.608	13.62
354.972	13.62
355.337	13.57
355.702	13.52
356.066	13.49
356.431	13.43
356.795	13.4
357.16	13.33
357.524	13.27
357.889	13.24
358.253	13.2
358.618	13.13
358.982	13.08
359.346	13.04
359.71	13.01
360.075	12.93
360.439	12.9
360.803	12.85
361.167	12.78
361.531	12.73
361.895	12.67
362.259	12.61
362.623	12.55
362.987	12.52
363.351	12.48
363.714	12.43
364.078	12.38
364.442	12.29
364.806	12.23
365.169	12.18
365.533	12.1
365.896	12.03
366.26	11.98
366.623	11.92
366.987	11.84
367.35	11.73
367.714	11.65
368.077	11.56
368.44	11.46
368.803	11.37
369.167	11.29
369.53	11.22
369.893	11.16
370.256	11.08
370.619	11
370.982	10.88
371.345	10.77
371.708	10.69
372.071	10.62
372.434	10.53
372.797	10.44
373.159	10.36
373.522	10.26
373.885	10.17
374.247	10.08
374.61	9.99
374.973	9.91
375.335	9.82
375.698	9.71
376.06	9.64
376.423	9.56
376.785	9.46
377.147	9.38
377.51	9.28
377.872	9.17
378.234	9.05
378.596	9.01
378.958	8.94
379.321	8.87
379.683	8.8
380.045	8.73
380.407	8.65
380.769	8.57
381.13	8.51
381.492	8.41
381.854	8.34
382.216	8.27
382.578	8.19
382.939	8.13
383.301	8.07
383.663	8.01
384.024	7.96
384.386	7.9
384.747	7.83
385.109	7.78
385.47	7.74
385.832	7.7
386.193	7.62
386.554	7.57
386.916	7.5
387.277	7.43
387.638	7.38
387.999	7.33
388.36	7.29
388.721	7.24
389.082	7.19
389.443	7.13
389.804	7.07
390.165	7.02
390.526	6.96
390.887	6.89
391.248	6.85
391.609	6.79
391.969	6.74
392.33	6.7
392.691	6.65
393.051	6.59
393.412	6.54
393.772	6.49
394.133	6.45
394.493	6.4
394.854	6.36
395.214	6.31
395.574	6.25
395.935	6.2
396.295	6.14
396.655	6.09
397.015	6.04
397.376	5.99
397.736	5.94
398.096	5.88
398.456	5.84
398.816	5.78
399.176	5.72
399.535	5.69
399.895	5.64
400.255	5.59
400.615	5.56
400.975	5.52
401.334	5.48
401.694	5.43
402.054	5.39
402.413	5.35
402.773	5.31
403.132	5.29
403.492	5.25
403.851	5.22
404.211	5.19
404.57	5.17
404.929	5.15
405.288	5.12
405.648	5.11
406.007	5.08
406.366	5.06
406.725	5.05
407.084	5.03
407.443	5.01
407.802	4.98
408.161	4.97
408.52	4.96
408.879	4.94
409.238	4.93
409.596	4.92
409.955	4.91
410.314	4.89
410.673	4.86
411.031	4.85
411.39	4.84
411.748	4.82
412.107	4.81
412.465	4.78
412.824	4.77
413.182	4.75
413.54	4.73
413.899	4.72
414.257	4.7
414.615	4.68
414.974	4.66
415.332	4.66
415.69	4.63
416.048	4.62
416.406	4.61
416.764	4.61
417.122	4.59
417.48	4.59
417.838	4.57
418.195	4.56
418.553	4.55
418.911	4.55
419.269	4.54
419.626	4.54
419.984	4.55
420.342	4.54
420.699	4.52
421.057	4.52
421.414	4.51
421.772	4.5
422.129	4.49
422.486	4.48
422.844	4.47
423.201	4.46
423.558	4.45
423.915	4.44
424.273	4.42
424.63	4.41
424.987	4.39
425.344	4.38
425.701	4.37
426.058	4.36
426.415	4.34
426.772	4.32
427.128	4.29
427.485	4.27
427.842	4.26
428.199	4.25
428.555	4.23
428.912	4.21
429.269	4.2
429.625	4.19
429.982	4.18
430.338	4.17
430.695	4.16
431.051	4.15
431.407	4.15
431.764	4.14
432.12	4.13
432.476	4.13
432.832	4.13
433.189	4.13
433.545	4.12
433.901	4.13
434.257	4.12
434.613	4.13
434.969	4.13
435.325	4.13
435.681	4.14
436.036	4.14
436.392	4.16
436.748	4.16
437.104	4.16
437.459	4.17
437.815	4.17
438.171	4.17
438.526	4.17
438.882	4.18
439.237	4.18
439.593	4.19
439.948	4.19
440.304	4.19
440.659	4.19
441.014	4.19
441.369	4.19
441.725	4.19
442.08	4.19
442.435	4.19
442.79	4.19
443.145	4.18
443.5	4.17
443.855	4.17
444.21	4.16
444.565	4.16
444.92	4.15
445.275	4.15
445.629	4.14
445.984	4.14
446.339	4.14
446.693	4.13
447.048	4.12
447.403	4.11
447.757	4.1
448.112	4.1
448.466	4.1
448.82	4.09
449.175	4.08
449.529	4.08
449.883	4.07
450.238	4.06
450.592	4.05
450.946	4.04
451.3	4.03
451.654	4.02
452.008	4.01
452.362	3.99
452.716	3.98
453.07	3.97
453.424	3.96
453.778	3.96
454.132	3.95
454.486	3.95
454.839	3.95
455.193	3.95
455.547	3.95
455.9	3.95
456.254	3.95
456.607	3.96
456.961	3.97
457.314	3.98
457.668	3.98
458.021	3.98
458.375	3.99
458.728	4
459.081	4.01
459.434	4.01
459.787	4.02
460.141	4.02
460.494	4.01
460.847	4.02
461.2	4.01
461.553	4.01
461.906	4.02
462.259	4.02
462.611	4.03
462.964	4.03
463.317	4.04
463.67	4.04
464.022	4.03
464.375	4.03
464.728	4.03
465.08	4.04
465.433	4.04
465.785	4.05
466.138	4.05
466.49	4.05
466.843	4.06
467.195	4.07
467.547	4.09
467.899	4.1
468.252	4.11
468.604	4.12
468.956	4.13
469.308	4.14
469.66	4.14
470.012	4.14
470.364	4.15
470.716	4.15
471.068	4.16
471.42	4.17
471.772	4.17
472.123	4.19
472.475	4.19
472.827	4.2
473.178	4.21
473.53	4.22
473.882	4.22
474.233	4.22
474.585	4.24
474.936	4.24
475.288	4.24
475.639	4.24
475.99	4.25
476.342	4.26
476.693	4.26
477.044	4.25
477.395	4.26
477.746	4.26
478.097	4.26
478.448	4.28
478.8	4.35
479.15	4.45
479.501	4.58
479.852	4.72
480.203	4.89
480.554	5.06
480.905	5.23
481.255	5.39
481.606	5.56
481.957	5.72
482.307	5.88
482.658	6.01
483.009	6.13
483.359	6.23
483.709	6.32
484.06	6.41
484.41	6.5
484.761	6.58
485.111	6.65
485.461	6.73
485.811	6.8
486.162	6.83
486.512	6.83
486.862	6.8
487.212	6.75
487.562	6.67
487.912	6.57
488.262	6.47
488.612	6.36
488.961	6.24
489.311	6.11
489.661	5.98
490.011	5.84
490.36	5.71
490.71	5.56
491.06	5.42
491.409	5.27
491.759	5.15
492.108	5.06
492.458	4.98
492.807	4.9
493.157	4.83
493.506	4.76
493.855	4.7
494.204	4.64
494.554	4.58
494.903	4.53
495.252	4.49
495.601	4.45
495.95	4.42
496.299	4.4
496.648	4.37
496.997	4.36
497.346	4.37
497.695	4.39
498.043	4.44
498.392	4.52
498.741	4.6
499.09	4.66
499.438	4.7
499.787	4.74
500.135	4.78
500.484	4.82
500.832	4.86
501.181	4.9
501.529	4.95
501.878	5
502.226	5.04
502.574	5.09
502.923	5.15
503.271	5.2
503.619	5.26
503.967	5.33
504.315	5.4
504.663	5.47
505.011	5.54
505.359	5.61
505.707	5.68
506.055	5.76
506.403	5.84
506.751	5.92
507.098	6
507.446	6.08
507.794	6.16
508.141	6.24
508.489	6.32
508.837	6.4
509.184	6.48
509.531	6.56
509.879	6.65
510.226	6.73
510.574	6.81
510.921	6.89
511.268	6.96
511.616	7.05
511.963	7.13
512.31	7.22
512.657	7.32
513.004	7.4
513.351	7.5
513.698	7.61
514.045	7.72
514.392	7.83
514.739	7.93
515.086	8.04
515.432	8.15
515.779	8.25
516.126	8.35
516.473	8.45
516.819	8.53
517.166	8.63
517.512	8.71
517.859	8.8
518.205	8.89
518.552	8.98
518.898	9.06
519.245	9.14
519.591	9.22
519.937	9.29
520.283	9.39
520.629	9.48
520.976	9.58
521.322	9.67
521.668	9.77
522.014	9.89
522.36	10
522.706	10.13
523.052	10.3
523.398	10.53
523.743	10.85
524.089	11.2
524.435	11.57
524.781	11.96
525.126	12.36
525.472	12.74
525.817	13.12
526.163	13.48
526.509	13.81
526.854	14.11
527.199	14.35
527.545	14.54
527.89	14.7
528.235	14.86
528.581	15.02
528.926	15.18
529.271	15.33
529.616	15.49
529.961	15.64
530.306	15.77
530.651	15.85
530.996	15.86
531.341	15.84
531.686	15.78
532.031	15.66
532.376	15.49
532.721	15.3
533.065	15.1
533.41	14.95
533.755	14.81
534.099	14.72
534.444	14.7
534.788	14.73
535.133	14.79
535.477	14.87
535.822	14.95
536.166	15.07
536.51	15.2
536.855	15.37
537.199	15.56
537.543	15.76
537.887	16
538.231	16.27
538.576	16.55
538.92	16.84
539.264	17.16
539.608	17.49
539.951	17.83
540.295	18.14
540.639	18.38
540.983	18.58
541.327	18.76
541.671	18.93
542.014	19.12
542.358	19.32
542.701	19.5
543.045	19.69
543.389	19.87
543.732	20.05
544.075	20.22
544.419	20.39
544.762	20.55
545.105	20.69
545.449	20.81
545.792	20.92
546.135	21.03
546.478	21.16
546.821	21.32
547.165	21.53
547.508	21.79
547.851	22.08
548.194	22.43
548.536	22.81
548.879	23.14
549.222	23.42
549.565	23.7
549.908	23.99
550.25	24.27
550.593	24.55
550.936	24.85
551.278	25.14
551.621	25.42
551.963	25.72
552.306	26.02
552.648	26.33
552.991	26.6
553.333	26.9
553.675	27.2
554.017	27.5
554.36	27.78
554.702	28.06
555.044	28.34
555.386	28.64
555.728	28.93
556.07	29.22
556.412	29.52
556.754	29.82
557.096	30.13
557.438	30.44
557.78	30.77
558.121	31.06
558.463	31.38
558.805	31.7
559.147	32.02
559.488	32.32
559.83	32.62
560.171	32.95
560.513	33.27
560.854	33.58
561.196	33.91
561.537	34.25
561.878	34.58
562.22	34.92
562.561	35.25
562.902	35.57
563.243	35.89
563.584	36.19
563.925	36.5
564.266	36.79
564.607	37.1
564.948	37.38
565.289	37.68
565.63	37.97
565.971	38.24
566.312	38.53
566.653	38.82
566.993	39.1
567.334	39.39
567.675	39.67
568.015	39.96
568.356	40.23
568.696	40.51
569.037	40.79
569.377	41.05
569.718	41.32
570.058	41.58
570.398	41.85
570.739	42.1
571.079	42.35
571.419	42.61
571.759	42.84
572.099	43.07
572.439	43.29
572.779	43.5
573.119	43.73
573.459	43.93
573.799	44.11
574.139	44.3
574.479	44.48
574.819	44.65
575.158	44.82
575.498	44.99
575.838	45.13
576.177	45.28
576.517	45.43
576.856	45.58
577.196	45.74
577.535	45.88
577.875	46.05
578.214	46.19
578.553	46.34
578.893	46.48
579.232	46.63
579.571	46.76
579.91	46.92
580.25	47.06
580.589	47.2
580.928	47.35
581.267	47.51
581.606	47.66
581.945	47.82
582.283	47.99
582.622	48.16
582.961	48.33
583.3	48.5
583.639	48.68
583.977	48.86
584.316	49.02
584.654	49.17
584.993	49.35
585.332	49.54
585.67	49.71
586.008	49.91
586.347	50.1
586.685	50.3
587.024	50.47
587.362	50.66
587.7	50.83
588.038	51.01
588.376	51.18
588.715	51.34
589.053	51.51
589.391	51.66
589.729	51.81
590.067	51.94
590.404	52.09
590.742	52.22
591.08	52.37
591.418	52.54
591.756	52.7
592.093	52.85
592.431	53
592.769	53.14
593.106	53.27
593.444	53.38
593.781	53.5
594.119	53.63
594.456	53.75
594.793	53.86
595.131	53.97
595.468	54.06
595.805	54.13
596.143	54.2
596.48	54.29
596.817	54.35
597.154	54.45
597.491	54.52
597.828	54.61
598.165	54.68
598.502	54.75
598.839	54.82
599.176	54.89
599.512	54.98
599.849	55.07
600.186	55.18
600.523	55.3
600.859	55.44
601.196	55.53
601.532	55.62
601.869	55.73
602.205	55.81
602.542	55.9
602.878	56.02
603.215	56.08
603.551	56.15
603.887	56.25
604.223	56.33
604.56	56.4
604.896	56.46
605.232	56.51
605.568	56.61
605.904	56.65
606.24	56.74
606.576	56.79
606.912	56.84
607.248	56.86
607.583	56.9
607.919	56.91
608.255	56.94
608.591	56.98
608.926	57.01
609.262	57.06
609.597	57.09
609.933	57.13
610.268	57.19
610.604	57.21
610.939	57.22
611.275	57.25
611.61	57.29
611.945	57.31
612.281	57.36
612.616	57.33
612.951	57.37
613.286	57.37
613.621	57.4
613.956	57.41
614.291	57.46
614.626	57.47
614.961	57.51
615.296	57.54
615.631	57.56
615.966	57.56
616.3	57.59
616.635	57.63
616.97	57.63
617.304	57.67
617.639	57.71
617.973	57.74
618.308	57.77
618.642	57.81
618.977	57.84
619.311	57.9
619.646	57.93
619.98	57.97
620.314	58.04
620.648	58.07
620.983	58.11
621.317	58.14
621.651	58.2
621.985	58.26
622.319	58.32
622.653	58.36
622.987	58.44
623.321	58.52
623.655	58.57
623.988	58.67
624.322	58.74
624.656	58.8
624.99	58.89
625.323	58.92
625.657	58.96
625.99	59.02
626.324	59.05
626.657	59.13
626.991	59.18
627.324	59.2
627.658	59.22
627.991	59.25
628.324	59.25
628.657	59.25
628.991	59.29
629.324	59.31
629.657	59.35
629.99	59.36
630.323	59.39
630.656	59.41
630.989	59.42
631.322	59.45
631.655	59.48
631.987	59.46
632.32	59.51
632.653	59.52
632.986	59.54
633.318	59.53
633.651	59.53
633.984	59.56
634.316	59.6
634.649	59.61
634.981	59.63
635.313	59.68
635.646	59.7
635.978	59.67
636.31	59.68
636.643	59.7
636.975	59.73
637.307	59.69
637.639	59.7
637.971	59.7
638.303	59.67
638.635	59.63
638.967	59.65
639.299	59.63
639.631	59.64
639.963	59.69
640.295	59.73
640.626	59.74
640.958	59.74
641.29	59.78
641.621	59.85
641.953	59.88
642.285	59.94
642.616	59.97
642.948	60
643.279	60.03
643.61	60.03
643.942	60.03
644.273	60.1
644.604	60.17
644.936	60.22
645.267	60.27
645.598	60.34
645.929	60.38
646.26	60.48
646.591	60.52
646.922	60.53
647.253	60.6
647.584	60.63
647.915	60.7
648.245	60.71
648.576	60.73
648.907	60.77
649.238	60.76
649.568	60.8
649.899	60.88
650.229	60.91
650.56	60.97
650.89	61.01
651.221	61.03
651.551	61.07
651.882	61.1
652.212	61.13
652.542	61.15
652.872	61.19
653.203	61.21
653.533	61.21
653.863	61.23
654.193	61.23
654.523	61.26
654.853	61.26
655.183	61.29
655.513	61.33
655.843	61.37
656.172	61.47
656.502	61.53
656.832	61.53
657.162	61.55
657.491	61.58
657.821	61.58
658.15	61.62
658.48	61.59
658.809	61.6
659.139	61.62
659.468	61.62
659.798	61.6
660.127	61.62
660.456	61.7
660.785	61.73
661.115	61.76
661.444	61.73
661.773	61.72
662.102	61.71
662.431	61.69
662.76	61.65
663.089	61.58
663.418	61.56
663.747	61.6
664.076	61.6
664.404	61.57
664.733	61.57
665.062	61.56
665.39	61.56
665.719	61.58
666.048	61.61
666.376	61.64
666.705	61.65
667.033	61.6
667.362	61.57
667.69	61.54
