Data from UWBM50074_Reflection_00011.txt Node
Date: Sun May 02 12:36:09 EDT 2021
User: vgr7
Spectrometer: USB2G7710
Scans to average: 10
Trigger mode: 4
Integration Time (sec): 1.000000E-1
Electric dark correction enabled: true
Boxcar width: 10
XAxis mode: Wavelengths
Number of Pixels in Spectrum: 2048
>>>>>Begin Spectral Data<<<<<
177.721	36.87
178.105	63.64
178.488	475.41
178.871	-354.72
179.254	104
179.636	114.62
180.019	16.79
180.402	131.58
180.785	43.6
181.168	68.35
181.55	114.96
181.933	-95.38
182.316	-44.8
182.698	-157.3
183.081	75.2
183.463	-156.96
183.846	44.85
184.228	77.01
184.611	74.63
184.993	53.2
185.376	50.79
185.758	42.22
186.14	39.94
186.522	32.76
186.904	22.38
187.287	30.57
187.669	34.49
188.051	27.28
188.433	29.27
188.815	30.99
189.197	33.17
189.579	30.76
189.961	26.53
190.342	22.56
190.724	24.2
191.106	27.41
191.488	30.26
191.869	27.19
192.251	27.25
192.633	28.06
193.014	26.63
193.396	26.17
193.777	27.01
194.159	28.13
194.54	25.88
194.922	27.26
195.303	26.52
195.684	25.6
196.065	25.19
196.447	22.06
196.828	19.22
197.209	13.31
197.59	9.45
197.971	8.98
198.352	11.5
198.733	13.58
199.114	13.76
199.495	11.19
199.876	10.5
200.257	9.38
200.638	7.37
201.018	7.88
201.399	7.11
201.78	7.78
202.16	7.86
202.541	8.77
202.922	9.64
203.302	6.98
203.683	8.37
204.063	7.98
204.444	7.87
204.824	12.32
205.204	14.54
205.585	17.29
205.965	20.94
206.345	22.91
206.725	20.56
207.106	19.1
207.486	19.73
207.866	21.74
208.246	20.9
208.626	23.75
209.006	22.16
209.386	21.82
209.766	19.57
210.145	18.66
210.525	16.71
210.905	16.32
211.285	18.65
211.664	15.29
212.044	16.33
212.424	18.34
212.803	16.23
213.183	18.25
213.562	17.01
213.942	14.27
214.321	11.6
214.701	9.73
215.08	11.21
215.459	9.98
215.838	6.76
216.218	8.25
216.597	5.24
216.976	5.49
217.355	5.7
217.734	4.59
218.113	1.47
218.492	1.98
218.871	2.17
219.25	1.41
219.629	3.95
220.008	4.84
220.387	5.05
220.766	4.25
221.144	4.18
221.523	6.48
221.902	8.21
222.28	9.1
222.659	10.63
223.037	11.57
223.416	13.23
223.794	13.75
224.173	11.56
224.551	11.83
224.929	11.08
225.308	11.87
225.686	12.32
226.064	12.94
226.442	13.64
226.821	13.15
227.199	12.09
227.577	10.99
227.955	10.8
228.333	10.8
228.711	10.27
229.089	10.23
229.467	9.72
229.845	9.21
230.222	8.56
230.6	8.19
230.978	7.73
231.356	7.31
231.733	7.2
232.111	7.55
232.488	7.38
232.866	7.23
233.243	6.64
233.621	6.76
233.998	6.67
234.376	6.72
234.753	6.87
235.13	6.99
235.508	7.42
235.885	7.11
236.262	6.84
236.639	7.18
237.016	6.89
237.393	6.76
237.77	6.43
238.147	6.42
238.524	6.52
238.901	6.44
239.278	6.2
239.655	6.18
240.032	5.91
240.409	5.78
240.785	5.72
241.162	5.72
241.539	5.61
241.915	5.53
242.292	5.43
242.668	5.31
243.045	5.27
243.421	5.09
243.798	5.03
244.174	4.93
244.551	4.77
244.927	4.69
245.303	4.6
245.679	4.61
246.056	4.51
246.432	4.44
246.808	4.39
247.184	4.43
247.56	4.38
247.936	4.42
248.312	4.48
248.688	4.47
249.064	4.44
249.44	4.42
249.815	4.41
250.191	4.38
250.567	4.35
250.943	4.37
251.318	4.36
251.694	4.33
252.069	4.29
252.445	4.3
252.82	4.29
253.196	4.36
253.571	4.37
253.947	4.49
254.322	4.5
254.697	4.49
255.073	4.47
255.448	4.45
255.823	4.37
256.198	4.24
256.573	4.15
256.948	4.1
257.323	4.08
257.698	4.09
258.073	4.08
258.448	4.05
258.823	4.02
259.198	4.03
259.573	4.04
259.948	4.08
260.322	4.05
260.697	4.05
261.072	4.01
261.446	3.98
261.821	3.94
262.195	3.92
262.57	3.93
262.944	3.89
263.319	3.88
263.693	3.87
264.067	3.89
264.442	3.91
264.816	3.9
265.19	3.89
265.564	3.88
265.938	3.86
266.313	3.88
266.687	3.85
267.061	3.83
267.435	3.81
267.809	3.79
268.183	3.81
268.556	3.84
268.93	3.85
269.304	3.81
269.678	3.79
270.051	3.77
270.425	3.76
270.799	3.78
271.172	3.75
271.546	3.77
271.919	3.8
272.293	3.8
272.666	3.81
273.04	3.83
273.413	3.77
273.787	3.76
274.16	3.76
274.533	3.74
274.906	3.74
275.279	3.75
275.653	3.74
276.026	3.71
276.399	3.67
276.772	3.67
277.145	3.75
277.518	3.79
277.891	3.82
278.263	3.81
278.636	3.8
279.009	3.84
279.382	3.81
279.755	3.76
280.127	3.77
280.5	3.76
280.872	3.72
281.245	3.78
281.617	3.79
281.99	3.83
282.362	3.82
282.735	3.79
283.107	3.79
283.479	3.79
283.852	3.8
284.224	3.81
284.596	3.8
284.968	3.76
285.34	3.74
285.713	3.75
286.085	3.75
286.457	3.75
286.829	3.73
287.201	3.74
287.572	3.77
287.944	3.77
288.316	3.84
288.688	3.89
289.06	3.9
289.431	3.92
289.803	3.9
290.175	3.95
290.546	4
290.918	4.01
291.289	4.04
291.661	4.08
292.032	4.09
292.403	4.12
292.775	4.12
293.146	4.15
293.517	4.18
293.889	4.21
294.26	4.21
294.631	4.24
295.002	4.26
295.373	4.29
295.744	4.32
296.115	4.31
296.486	4.3
296.857	4.32
297.228	4.33
297.599	4.36
297.97	4.37
298.34	4.39
298.711	4.4
299.082	4.39
299.452	4.4
299.823	4.43
300.194	4.47
300.564	4.5
300.935	4.53
301.305	4.54
301.676	4.55
302.046	4.59
302.416	4.63
302.787	4.67
303.157	4.72
303.527	4.77
303.897	4.81
304.267	4.88
304.637	4.92
305.008	4.98
305.378	5
305.748	5.07
306.117	5.1
306.487	5.13
306.857	5.2
307.227	5.24
307.597	5.28
307.967	5.32
308.336	5.38
308.706	5.43
309.076	5.46
309.445	5.51
309.815	5.55
310.184	5.59
310.554	5.61
310.923	5.62
311.293	5.64
311.662	5.68
312.031	5.69
312.401	5.73
312.77	5.74
313.139	5.8
313.508	5.82
313.877	5.9
314.246	5.95
314.616	5.99
314.985	6.04
315.353	6.1
315.722	6.13
316.091	6.17
316.46	6.24
316.829	6.33
317.198	6.38
317.567	6.42
317.935	6.48
318.304	6.53
318.672	6.59
319.041	6.64
319.41	6.68
319.778	6.78
320.147	6.83
320.515	6.92
320.883	6.96
321.252	7.03
321.62	7.04
321.988	7.11
322.357	7.17
322.725	7.21
323.093	7.24
323.461	7.3
323.829	7.35
324.197	7.37
324.565	7.4
324.933	7.45
325.301	7.53
325.669	7.56
326.037	7.61
326.405	7.64
326.772	7.67
327.14	7.71
327.508	7.71
327.875	7.74
328.243	7.75
328.61	7.78
328.978	7.83
329.346	7.86
329.713	7.87
330.08	7.91
330.448	7.94
330.815	7.99
331.182	8.02
331.55	8.05
331.917	8.06
332.284	8.07
332.651	8.08
333.018	8.09
333.385	8.12
333.752	8.15
334.119	8.17
334.486	8.18
334.853	8.2
335.22	8.2
335.587	8.23
335.954	8.27
336.32	8.27
336.687	8.26
337.054	8.27
337.42	8.31
337.787	8.34
338.153	8.38
338.52	8.4
338.886	8.44
339.253	8.47
339.619	8.5
339.986	8.55
340.352	8.59
340.718	8.64
341.084	8.66
341.451	8.7
341.817	8.72
342.183	8.77
342.549	8.8
342.915	8.84
343.281	8.87
343.647	8.89
344.013	8.94
344.379	8.99
344.745	9.03
345.11	9.05
345.476	9.07
345.842	9.09
346.208	9.11
346.573	9.12
346.939	9.15
347.304	9.14
347.67	9.13
348.035	9.14
348.401	9.15
348.766	9.17
349.132	9.19
349.497	9.21
349.862	9.21
350.228	9.22
350.593	9.24
350.958	9.25
351.323	9.25
351.688	9.26
352.053	9.25
352.418	9.26
352.783	9.27
353.148	9.26
353.513	9.24
353.878	9.26
354.243	9.24
354.608	9.24
354.972	9.25
355.337	9.26
355.702	9.25
356.066	9.23
356.431	9.19
356.795	9.16
357.16	9.16
357.524	9.14
357.889	9.12
358.253	9.1
358.618	9.08
358.982	9.08
359.346	9.05
359.71	9.03
360.075	8.99
360.439	8.96
360.803	8.94
361.167	8.91
361.531	8.89
361.895	8.88
362.259	8.86
362.623	8.83
362.987	8.83
363.351	8.81
363.714	8.78
364.078	8.76
364.442	8.74
364.806	8.71
365.169	8.69
365.533	8.66
365.896	8.64
366.26	8.59
366.623	8.53
366.987	8.5
367.35	8.46
367.714	8.42
368.077	8.38
368.44	8.35
368.803	8.31
369.167	8.26
369.53	8.2
369.893	8.16
370.256	8.12
370.619	8.05
370.982	8
371.345	7.95
371.708	7.92
372.071	7.85
372.434	7.81
372.797	7.74
373.159	7.69
373.522	7.64
373.885	7.59
374.247	7.56
374.61	7.49
374.973	7.44
375.335	7.4
375.698	7.35
376.06	7.29
376.423	7.25
376.785	7.19
377.147	7.15
377.51	7.1
377.872	7.03
378.234	6.99
378.596	6.95
378.958	6.91
379.321	6.86
379.683	6.83
380.045	6.77
380.407	6.74
380.769	6.7
381.13	6.66
381.492	6.61
381.854	6.57
382.216	6.56
382.578	6.51
382.939	6.47
383.301	6.44
383.663	6.41
384.024	6.38
384.386	6.35
384.747	6.32
385.109	6.28
385.47	6.25
385.832	6.22
386.193	6.19
386.554	6.16
386.916	6.14
387.277	6.1
387.638	6.08
387.999	6.05
388.36	6.03
388.721	6
389.082	5.98
389.443	5.95
389.804	5.9
390.165	5.87
390.526	5.84
390.887	5.8
391.248	5.78
391.609	5.75
391.969	5.72
392.33	5.69
392.691	5.66
393.051	5.63
393.412	5.6
393.772	5.57
394.133	5.54
394.493	5.5
394.854	5.48
395.214	5.45
395.574	5.41
395.935	5.37
396.295	5.33
396.655	5.29
397.015	5.26
397.376	5.24
397.736	5.21
398.096	5.19
398.456	5.16
398.816	5.14
399.176	5.1
399.535	5.07
399.895	5.05
400.255	5.02
400.615	5
400.975	4.97
401.334	4.94
401.694	4.92
402.054	4.91
402.413	4.88
402.773	4.86
403.132	4.85
403.492	4.84
403.851	4.82
404.211	4.81
404.57	4.8
404.929	4.78
405.288	4.77
405.648	4.76
406.007	4.74
406.366	4.74
406.725	4.73
407.084	4.72
407.443	4.72
407.802	4.71
408.161	4.7
408.52	4.7
408.879	4.7
409.238	4.69
409.596	4.69
409.955	4.68
410.314	4.68
410.673	4.66
411.031	4.66
411.39	4.65
411.748	4.65
412.107	4.65
412.465	4.64
412.824	4.63
413.182	4.63
413.54	4.62
413.899	4.62
414.257	4.61
414.615	4.6
414.974	4.59
415.332	4.59
415.69	4.58
416.048	4.58
416.406	4.61
416.764	4.62
417.122	4.66
417.48	4.7
417.838	4.74
418.195	4.79
418.553	4.83
418.911	4.89
419.269	4.93
419.626	4.97
419.984	5.02
420.342	5.06
420.699	5.1
421.057	5.14
421.414	5.18
421.772	5.21
422.129	5.25
422.486	5.27
422.844	5.28
423.201	5.27
423.558	5.25
423.915	5.2
424.273	5.15
424.63	5.08
424.987	5
425.344	4.93
425.701	4.86
426.058	4.8
426.415	4.74
426.772	4.67
427.128	4.61
427.485	4.54
427.842	4.48
428.199	4.43
428.555	4.36
428.912	4.3
429.269	4.25
429.625	4.2
429.982	4.16
430.338	4.12
430.695	4.12
431.051	4.13
431.407	4.15
431.764	4.17
432.12	4.2
432.476	4.24
432.832	4.26
433.189	4.28
433.545	4.28
433.901	4.29
434.257	4.3
434.613	4.3
434.969	4.31
435.325	4.33
435.681	4.35
436.036	4.39
436.392	4.42
436.748	4.47
437.104	4.51
437.459	4.56
437.815	4.61
438.171	4.65
438.526	4.68
438.882	4.72
439.237	4.76
439.593	4.77
439.948	4.79
440.304	4.81
440.659	4.82
441.014	4.86
441.369	4.89
441.725	4.92
442.08	4.97
442.435	5.02
442.79	5.08
443.145	5.13
443.5	5.15
443.855	5.19
444.21	5.19
444.565	5.19
444.92	5.19
445.275	5.17
445.629	5.16
445.984	5.16
446.339	5.13
446.693	5.09
447.048	5.07
447.403	5.05
447.757	5.03
448.112	5.01
448.466	4.96
448.82	4.91
449.175	4.85
449.529	4.79
449.883	4.71
450.238	4.62
450.592	4.54
450.946	4.47
451.3	4.4
451.654	4.34
452.008	4.29
452.362	4.22
452.716	4.18
453.07	4.13
453.424	4.09
453.778	4.08
454.132	4.07
454.486	4.06
454.839	4.07
455.193	4.1
455.547	4.14
455.9	4.2
456.254	4.26
456.607	4.32
456.961	4.39
457.314	4.46
457.668	4.52
458.021	4.57
458.375	4.62
458.728	4.63
459.081	4.66
459.434	4.66
459.787	4.68
460.141	4.66
460.494	4.64
460.847	4.63
461.2	4.62
461.553	4.61
461.906	4.61
462.259	4.6
462.611	4.57
462.964	4.54
463.317	4.51
463.67	4.48
464.022	4.44
464.375	4.4
464.728	4.35
465.08	4.31
465.433	4.28
465.785	4.25
466.138	4.25
466.49	4.24
466.843	4.25
467.195	4.26
467.547	4.3
467.899	4.35
468.252	4.39
468.604	4.41
468.956	4.44
469.308	4.46
469.66	4.48
470.012	4.49
470.364	4.5
470.716	4.51
471.068	4.52
471.42	4.52
471.772	4.53
472.123	4.54
472.475	4.55
472.827	4.56
473.178	4.56
473.53	4.56
473.882	4.57
474.233	4.57
474.585	4.58
474.936	4.58
475.288	4.58
475.639	4.58
475.99	4.59
476.342	4.59
476.693	4.6
477.044	4.6
477.395	4.62
477.746	4.66
478.097	4.72
478.448	4.84
478.8	5
479.15	5.21
479.501	5.45
479.852	5.73
480.203	6.03
480.554	6.33
480.905	6.66
481.255	6.98
481.606	7.3
481.957	7.64
482.307	7.97
482.658	8.27
483.009	8.55
483.359	8.81
483.709	9.07
484.06	9.32
484.41	9.56
484.761	9.78
485.111	9.98
485.461	10.14
485.811	10.24
486.162	10.28
486.512	10.28
486.862	10.22
487.212	10.13
487.562	10.01
487.912	9.88
488.262	9.72
488.612	9.55
488.961	9.38
489.311	9.18
489.661	8.98
490.011	8.79
490.36	8.59
490.71	8.38
491.06	8.17
491.409	7.95
491.759	7.74
492.108	7.54
492.458	7.34
492.807	7.15
493.157	6.98
493.506	6.81
493.855	6.66
494.204	6.51
494.554	6.36
494.903	6.23
495.252	6.09
495.601	5.97
495.95	5.85
496.299	5.72
496.648	5.61
496.997	5.5
497.346	5.4
497.695	5.33
498.043	5.29
498.392	5.27
498.741	5.27
499.09	5.28
499.438	5.3
499.787	5.32
500.135	5.35
500.484	5.39
500.832	5.44
501.181	5.48
501.529	5.53
501.878	5.59
502.226	5.65
502.574	5.72
502.923	5.8
503.271	5.89
503.619	6
503.967	6.12
504.315	6.25
504.663	6.41
505.011	6.57
505.359	6.74
505.707	6.91
506.055	7.07
506.403	7.24
506.751	7.42
507.098	7.61
507.446	7.79
507.794	7.97
508.141	8.15
508.489	8.34
508.837	8.51
509.184	8.7
509.531	8.88
509.879	9.07
510.226	9.26
510.574	9.45
510.921	9.63
511.268	9.82
511.616	10.01
511.963	10.21
512.31	10.42
512.657	10.65
513.004	10.9
513.351	11.16
513.698	11.45
514.045	11.76
514.392	12.08
514.739	12.43
515.086	12.79
515.432	13.17
515.779	13.55
516.126	13.91
516.473	14.28
516.819	14.63
517.166	14.95
517.512	15.26
517.859	15.53
518.205	15.79
518.552	16.03
518.898	16.25
519.245	16.47
519.591	16.68
519.937	16.91
520.283	17.18
520.629	17.46
520.976	17.76
521.322	18.11
521.668	18.45
522.014	18.84
522.36	19.28
522.706	19.78
523.052	20.45
523.398	21.31
523.743	22.33
524.089	23.48
524.435	24.73
524.781	26.05
525.126	27.45
525.472	28.9
525.817	30.37
526.163	31.84
526.509	33.29
526.854	34.63
527.199	35.84
527.545	36.9
527.89	37.85
528.235	38.75
528.581	39.59
528.926	40.4
529.271	41.15
529.616	41.82
529.961	42.37
530.306	42.75
530.651	42.94
530.996	42.96
531.341	42.88
531.686	42.67
532.031	42.33
532.376	41.87
532.721	41.31
533.065	40.7
533.41	40.07
533.755	39.45
534.099	38.88
534.444	38.41
534.788	38.01
535.133	37.67
535.477	37.35
535.822	37.14
536.166	37.04
536.51	37.06
536.855	37.21
537.199	37.47
537.543	37.81
537.887	38.25
538.231	38.74
538.576	39.26
538.92	39.83
539.264	40.44
539.608	41.07
539.951	41.62
540.295	42.11
540.639	42.51
540.983	42.87
541.327	43.22
541.671	43.55
542.014	43.85
542.358	44.12
542.701	44.34
543.045	44.41
543.389	44.33
543.732	44.09
544.075	43.69
544.419	43.16
544.762	42.48
545.105	41.65
545.449	40.86
545.792	40.04
546.135	39.3
546.478	38.66
546.821	38.07
547.165	37.59
547.508	37.24
547.851	37
548.194	36.82
548.536	36.67
548.879	36.56
549.222	36.55
549.565	36.56
549.908	36.62
550.25	36.74
550.593	36.91
550.936	37.13
551.278	37.41
551.621	37.75
551.963	38.19
552.306	38.72
552.648	39.16
552.991	39.61
553.333	39.94
553.675	40.14
554.017	40.33
554.36	40.54
554.702	40.73
555.044	40.9
555.386	41.11
555.728	41.3
556.07	41.48
556.412	41.66
556.754	41.85
557.096	42.03
557.438	42.21
557.78	42.39
558.121	42.56
558.463	42.7
558.805	42.88
559.147	43.07
559.488	43.26
559.83	43.43
560.171	43.63
560.513	43.8
560.854	43.99
561.196	44.19
561.537	44.38
561.878	44.58
562.22	44.79
562.561	44.97
562.902	45.17
563.243	45.34
563.584	45.52
563.925	45.68
564.266	45.85
564.607	46.02
564.948	46.17
565.289	46.32
565.63	46.48
565.971	46.64
566.312	46.77
566.653	46.92
566.993	47.07
567.334	47.21
567.675	47.39
568.015	47.55
568.356	47.68
568.696	47.82
569.037	47.96
569.377	48.08
569.718	48.22
570.058	48.35
570.398	48.49
570.739	48.63
571.079	48.75
571.419	48.87
571.759	49
572.099	49.13
572.439	49.26
572.779	49.38
573.119	49.49
573.459	49.58
573.799	49.69
574.139	49.78
574.479	49.87
574.819	49.93
575.158	49.97
575.498	50.04
575.838	50.08
576.177	50.12
576.517	50.18
576.856	50.24
577.196	50.29
577.535	50.34
577.875	50.39
578.214	50.44
578.553	50.48
578.893	50.51
579.232	50.55
579.571	50.6
579.91	50.63
580.25	50.69
580.589	50.76
580.928	50.81
581.267	50.89
581.606	50.93
581.945	50.99
582.283	51.08
582.622	51.18
582.961	51.29
583.3	51.37
583.639	51.44
583.977	51.52
584.316	51.6
584.654	51.69
584.993	51.76
585.332	51.85
585.67	51.95
586.008	52.06
586.347	52.15
586.685	52.24
587.024	52.34
587.362	52.42
587.7	52.52
588.038	52.6
588.376	52.65
588.715	52.75
589.053	52.85
589.391	52.92
589.729	53
590.067	53.05
590.404	53.14
590.742	53.22
591.08	53.31
591.418	53.39
591.756	53.48
592.093	53.58
592.431	53.67
592.769	53.76
593.106	53.84
593.444	53.93
593.781	54
594.119	54.08
594.456	54.16
594.793	54.24
595.131	54.31
595.468	54.38
595.805	54.44
596.143	54.47
596.48	54.53
596.817	54.58
597.154	54.65
597.491	54.67
597.828	54.73
598.165	54.76
598.502	54.82
598.839	54.86
599.176	54.9
599.512	54.95
599.849	55.02
600.186	55.09
600.523	55.16
600.859	55.25
601.196	55.33
601.532	55.39
601.869	55.46
602.205	55.53
602.542	55.6
602.878	55.63
603.215	55.7
603.551	55.76
603.887	55.81
604.223	55.86
604.56	55.95
604.896	56
605.232	56.05
605.568	56.08
605.904	56.14
606.24	56.18
606.576	56.23
606.912	56.24
607.248	56.27
607.583	56.27
607.919	56.29
608.255	56.3
608.591	56.32
608.926	56.32
609.262	56.33
609.597	56.34
609.933	56.36
610.268	56.39
610.604	56.36
610.939	56.36
611.275	56.36
611.61	56.36
611.945	56.36
612.281	56.37
612.616	56.39
612.951	56.39
613.286	56.38
613.621	56.37
613.956	56.37
614.291	56.37
614.626	56.39
614.961	56.4
615.296	56.41
615.631	56.43
615.966	56.42
616.3	56.45
616.635	56.44
616.97	56.44
617.304	56.47
617.639	56.54
617.973	56.62
618.308	56.65
618.642	56.68
618.977	56.71
619.311	56.73
619.646	56.74
619.98	56.77
620.314	56.8
620.648	56.85
620.983	56.91
621.317	56.95
621.651	56.98
621.985	57.01
622.319	57.06
622.653	57.1
622.987	57.14
623.321	57.19
623.655	57.26
623.988	57.34
624.322	57.36
624.656	57.39
624.99	57.41
625.323	57.46
625.657	57.49
625.99	57.52
626.324	57.56
626.657	57.6
626.991	57.62
627.324	57.66
627.658	57.69
627.991	57.69
628.324	57.69
628.657	57.7
628.991	57.74
629.324	57.76
629.657	57.78
629.99	57.81
630.323	57.84
630.656	57.86
630.989	57.87
631.322	57.9
631.655	57.9
631.987	57.92
632.32	57.95
632.653	57.99
632.986	58.01
633.318	58.03
633.651	58.05
633.984	58.07
634.316	58.11
634.649	58.1
634.981	58.13
635.313	58.17
635.646	58.19
635.978	58.19
636.31	58.2
636.643	58.21
636.975	58.21
637.307	58.2
637.639	58.23
637.971	58.23
638.303	58.25
638.635	58.3
638.967	58.28
639.299	58.3
639.631	58.31
639.963	58.31
640.295	58.33
640.626	58.35
640.958	58.36
641.29	58.37
641.621	58.4
641.953	58.46
642.285	58.49
642.616	58.51
642.948	58.53
643.279	58.57
643.61	58.61
643.942	58.66
644.273	58.7
644.604	58.69
644.936	58.71
645.267	58.74
645.598	58.75
645.929	58.8
646.26	58.81
646.591	58.83
646.922	58.88
647.253	58.9
647.584	58.94
647.915	58.96
648.245	58.99
648.576	59.02
648.907	59
649.238	59.05
649.568	59.09
649.899	59.12
650.229	59.15
650.56	59.18
650.89	59.18
651.221	59.2
651.551	59.25
651.882	59.31
652.212	59.35
652.542	59.34
652.872	59.37
653.203	59.42
653.533	59.45
653.863	59.47
654.193	59.5
654.523	59.53
654.853	59.57
655.183	59.62
655.513	59.64
655.843	59.71
656.172	59.72
656.502	59.72
656.832	59.75
657.162	59.78
657.491	59.81
657.821	59.85
658.15	59.85
658.48	59.88
658.809	59.89
659.139	59.91
659.468	59.93
659.798	59.93
660.127	59.92
660.456	59.94
660.785	59.96
661.115	59.97
661.444	59.97
661.773	59.99
662.102	59.97
662.431	59.97
662.76	59.96
663.089	59.95
663.418	59.99
663.747	60.01
664.076	59.98
664.404	59.96
664.733	59.96
665.062	60.01
665.39	60.02
665.719	59.99
666.048	59.98
666.376	60
666.705	60.01
667.033	60.04
667.362	60.07
667.69	60.06
668.018	60.1
668.347	60.11
668.675	60.11
669.003	60.12
669.331	60.14
669.659	60.13
669.987	60.17
