Data from UWBM55942_Reflection_00002.txt Node
Date: Sun May 02 14:10:10 EDT 2021
User: vgr7
Spectrometer: USB2G7710
Scans to average: 10
Trigger mode: 4
Integration Time (sec): 1.000000E-1
Electric dark correction enabled: true
Boxcar width: 20
XAxis mode: Wavelengths
Number of Pixels in Spectrum: 2048
>>>>>Begin Spectral Data<<<<<
177.721	-1465
178.105	-154.44
178.488	-586.14
178.871	-1282.35
179.254	365.16
179.636	211.29
180.019	95.33
180.402	61.1
180.785	55.82
181.168	50
181.55	58.18
181.933	51.45
182.316	48.98
182.698	44.89
183.081	41.5
183.463	37.46
183.846	28.88
184.228	35.09
184.611	31.45
184.993	25.28
185.376	20.8
185.758	20.81
186.14	22.9
186.522	22.15
186.904	20.93
187.287	20.27
187.669	23.14
188.051	24.39
188.433	25.64
188.815	22.5
189.197	25.45
189.579	25.08
189.961	23.14
190.342	20.71
190.724	19.92
191.106	18.75
191.488	19.38
191.869	16.43
192.251	12.07
192.633	11.3
193.014	8.44
193.396	5.14
193.777	5.06
194.159	5.88
194.54	4.04
194.922	3.28
195.303	3.15
195.684	3.79
196.065	4.54
196.447	4.24
196.828	3.15
197.209	-0.08
197.59	-3.85
197.971	-5.64
198.352	-3.7
198.733	-3.15
199.114	-2.49
199.495	-0.9
199.876	-4.02
200.257	-3.3
200.638	-3.48
201.018	-1.22
201.399	-0.08
201.78	-1.6
202.16	-2.03
202.541	-1.69
202.922	-3.18
203.302	-4.87
203.683	-7.47
204.063	-6.9
204.444	-7.65
204.824	-8.96
205.204	-8.96
205.585	-7.23
205.965	-4.92
206.345	-4.16
206.725	-3.93
207.106	-4.28
207.486	-4.11
207.866	-3.85
208.246	-4.23
208.626	-3.84
209.006	-3.25
209.386	-3.36
209.766	-3.99
210.145	-3.48
210.525	-1.8
210.905	0.28
211.285	-0.28
211.664	0.21
212.044	-0.76
212.424	-1.04
212.803	-0.76
213.183	2.04
213.562	5
213.942	3.92
214.321	2.57
214.701	1.49
215.08	2.56
215.459	3.15
215.838	2.08
216.218	2.01
216.597	0.4
216.976	1.37
217.355	1.96
217.734	2.73
218.113	1.95
218.492	3.3
218.871	2.32
219.25	2.87
219.629	1.6
220.008	2.78
220.387	2.66
220.766	3.33
221.144	2.38
221.523	3.52
221.902	3.06
222.28	3.22
222.659	3.54
223.037	3.2
223.416	4.1
223.794	4.75
224.173	4.55
224.551	4.26
224.929	4.91
225.308	4.73
225.686	4.88
226.064	4.3
226.442	3.38
226.821	3.92
227.199	4.33
227.577	4.63
227.955	5.31
228.333	5.3
228.711	4.73
229.089	3.69
229.467	3.51
229.845	3.58
230.222	3.67
230.6	3.38
230.978	3.54
231.356	3.89
231.733	4.13
232.111	4.12
232.488	3.76
232.866	3.5
233.243	3.42
233.621	3.48
233.998	3.56
234.376	3.81
234.753	3.82
235.13	3.94
235.508	4.02
235.885	4.1
236.262	4.11
236.639	4.17
237.016	3.99
237.393	4.02
237.77	4.04
238.147	3.97
238.524	4
238.901	4
239.278	4.03
239.655	4.06
240.032	4.07
240.409	4.09
240.785	4.11
241.162	4.09
241.539	4.12
241.915	4.2
242.292	4.24
242.668	4.19
243.045	4.16
243.421	4.12
243.798	4.13
244.174	4.17
244.551	4.19
244.927	4.21
245.303	4.24
245.679	4.27
246.056	4.24
246.432	4.26
246.808	4.25
247.184	4.24
247.56	4.26
247.936	4.27
248.312	4.3
248.688	4.29
249.064	4.28
249.44	4.29
249.815	4.25
250.191	4.21
250.567	4.22
250.943	4.21
251.318	4.19
251.694	4.18
252.069	4.16
252.445	4.16
252.82	4.13
253.196	4.11
253.571	4.1
253.947	4.08
254.322	4.05
254.697	4.04
255.073	4.03
255.448	4.03
255.823	4
256.198	4
256.573	3.97
256.948	3.96
257.323	3.94
257.698	3.88
258.073	3.87
258.448	3.86
258.823	3.84
259.198	3.85
259.573	3.83
259.948	3.85
260.322	3.83
260.697	3.81
261.072	3.79
261.446	3.8
261.821	3.77
262.195	3.76
262.57	3.75
262.944	3.75
263.319	3.76
263.693	3.75
264.067	3.75
264.442	3.75
264.816	3.72
265.19	3.73
265.564	3.76
265.938	3.74
266.313	3.75
266.687	3.75
267.061	3.74
267.435	3.73
267.809	3.72
268.183	3.74
268.556	3.74
268.93	3.74
269.304	3.76
269.678	3.78
270.051	3.76
270.425	3.74
270.799	3.73
271.172	3.74
271.546	3.73
271.919	3.75
272.293	3.74
272.666	3.73
273.04	3.75
273.413	3.78
273.787	3.8
274.16	3.8
274.533	3.8
274.906	3.82
275.279	3.81
275.653	3.82
276.026	3.83
276.399	3.83
276.772	3.82
277.145	3.83
277.518	3.84
277.891	3.86
278.263	3.84
278.636	3.83
279.009	3.82
279.382	3.83
279.755	3.83
280.127	3.85
280.5	3.85
280.872	3.86
281.245	3.86
281.617	3.85
281.99	3.86
282.362	3.85
282.735	3.86
283.107	3.87
283.479	3.86
283.852	3.86
284.224	3.86
284.596	3.85
284.968	3.84
285.34	3.85
285.713	3.86
286.085	3.87
286.457	3.86
286.829	3.86
287.201	3.86
287.572	3.87
287.944	3.86
288.316	3.84
288.688	3.84
289.06	3.83
289.431	3.82
289.803	3.82
290.175	3.81
290.546	3.81
290.918	3.81
291.289	3.82
291.661	3.82
292.032	3.82
292.403	3.81
292.775	3.82
293.146	3.82
293.517	3.83
293.889	3.84
294.26	3.86
294.631	3.86
295.002	3.88
295.373	3.88
295.744	3.87
296.115	3.87
296.486	3.89
296.857	3.9
297.228	3.9
297.599	3.91
297.97	3.92
298.34	3.93
298.711	3.94
299.082	3.94
299.452	3.94
299.823	3.94
300.194	3.94
300.564	3.95
300.935	3.97
301.305	3.96
301.676	3.97
302.046	3.97
302.416	3.98
302.787	3.96
303.157	3.97
303.527	3.99
303.897	3.98
304.267	3.99
304.637	4
305.008	3.99
305.378	4
305.748	4
306.117	4.01
306.487	4.02
306.857	4.04
307.227	4.05
307.597	4.05
307.967	4.04
308.336	4.04
308.706	4.02
309.076	4
309.445	4
309.815	3.99
310.184	3.97
310.554	3.96
310.923	3.96
311.293	3.95
311.662	3.95
312.031	3.94
312.401	3.95
312.77	3.95
313.139	3.94
313.508	3.93
313.877	3.92
314.246	3.92
314.616	3.92
314.985	3.92
315.353	3.93
315.722	3.9
316.091	3.91
316.46	3.91
316.829	3.9
317.198	3.91
317.567	3.91
317.935	3.91
318.304	3.9
318.672	3.89
319.041	3.9
319.41	3.88
319.778	3.88
320.147	3.87
320.515	3.86
320.883	3.85
321.252	3.84
321.62	3.83
321.988	3.82
322.357	3.81
322.725	3.81
323.093	3.81
323.461	3.81
323.829	3.82
324.197	3.83
324.565	3.82
324.933	3.82
325.301	3.83
325.669	3.85
326.037	3.83
326.405	3.84
326.772	3.82
327.14	3.82
327.508	3.81
327.875	3.79
328.243	3.78
328.61	3.76
328.978	3.75
329.346	3.74
329.713	3.76
330.08	3.75
330.448	3.73
330.815	3.73
331.182	3.71
331.55	3.71
331.917	3.7
332.284	3.68
332.651	3.68
333.018	3.69
333.385	3.69
333.752	3.68
334.119	3.68
334.486	3.68
334.853	3.66
335.22	3.67
335.587	3.68
335.954	3.68
336.32	3.68
336.687	3.67
337.054	3.67
337.42	3.67
337.787	3.66
338.153	3.66
338.52	3.66
338.886	3.65
339.253	3.65
339.619	3.65
339.986	3.65
340.352	3.65
340.718	3.65
341.084	3.66
341.451	3.65
341.817	3.65
342.183	3.66
342.549	3.65
342.915	3.65
343.281	3.65
343.647	3.67
344.013	3.67
344.379	3.67
344.745	3.67
345.11	3.66
345.476	3.68
345.842	3.69
346.208	3.7
346.573	3.7
346.939	3.7
347.304	3.71
347.67	3.71
348.035	3.7
348.401	3.71
348.766	3.72
349.132	3.71
349.497	3.72
349.862	3.72
350.228	3.72
350.593	3.72
350.958	3.72
351.323	3.71
351.688	3.72
352.053	3.72
352.418	3.73
352.783	3.73
353.148	3.72
353.513	3.73
353.878	3.73
354.243	3.73
354.608	3.74
354.972	3.74
355.337	3.74
355.702	3.74
356.066	3.74
356.431	3.75
356.795	3.74
357.16	3.73
357.524	3.74
357.889	3.75
358.253	3.74
358.618	3.73
358.982	3.74
359.346	3.75
359.71	3.75
360.075	3.75
360.439	3.75
360.803	3.74
361.167	3.73
361.531	3.72
361.895	3.72
362.259	3.72
362.623	3.71
362.987	3.71
363.351	3.71
363.714	3.7
364.078	3.7
364.442	3.7
364.806	3.7
365.169	3.7
365.533	3.71
365.896	3.7
366.26	3.7
366.623	3.69
366.987	3.68
367.35	3.68
367.714	3.68
368.077	3.69
368.44	3.68
368.803	3.68
369.167	3.67
369.53	3.67
369.893	3.66
370.256	3.66
370.619	3.66
370.982	3.66
371.345	3.66
371.708	3.66
372.071	3.66
372.434	3.66
372.797	3.66
373.159	3.66
373.522	3.66
373.885	3.66
374.247	3.65
374.61	3.65
374.973	3.65
375.335	3.65
375.698	3.65
376.06	3.66
376.423	3.66
376.785	3.66
377.147	3.66
377.51	3.66
377.872	3.67
378.234	3.66
378.596	3.65
378.958	3.65
379.321	3.64
379.683	3.65
380.045	3.65
380.407	3.65
380.769	3.64
381.13	3.64
381.492	3.64
381.854	3.65
382.216	3.65
382.578	3.64
382.939	3.64
383.301	3.64
383.663	3.64
384.024	3.64
384.386	3.64
384.747	3.64
385.109	3.63
385.47	3.64
385.832	3.63
386.193	3.63
386.554	3.63
386.916	3.63
387.277	3.63
387.638	3.63
387.999	3.63
388.36	3.63
388.721	3.63
389.082	3.63
389.443	3.62
389.804	3.62
390.165	3.62
390.526	3.62
390.887	3.62
391.248	3.62
391.609	3.62
391.969	3.62
392.33	3.62
392.691	3.62
393.051	3.62
393.412	3.63
393.772	3.63
394.133	3.63
394.493	3.63
394.854	3.63
395.214	3.62
395.574	3.63
395.935	3.63
396.295	3.63
396.655	3.62
397.015	3.62
397.376	3.63
397.736	3.62
398.096	3.63
398.456	3.63
398.816	3.64
399.176	3.64
399.535	3.64
399.895	3.64
400.255	3.64
400.615	3.64
400.975	3.64
401.334	3.65
401.694	3.65
402.054	3.65
402.413	3.65
402.773	3.65
403.132	3.65
403.492	3.65
403.851	3.65
404.211	3.65
404.57	3.65
404.929	3.65
405.288	3.65
405.648	3.65
406.007	3.65
406.366	3.65
406.725	3.65
407.084	3.65
407.443	3.65
407.802	3.65
408.161	3.65
408.52	3.65
408.879	3.66
409.238	3.66
409.596	3.67
409.955	3.67
410.314	3.67
410.673	3.68
411.031	3.69
411.39	3.7
411.748	3.7
412.107	3.71
412.465	3.72
412.824	3.74
413.182	3.76
413.54	3.78
413.899	3.81
414.257	3.84
414.615	3.88
414.974	3.91
415.332	3.95
415.69	3.98
416.048	4.01
416.406	4.05
416.764	4.08
417.122	4.11
417.48	4.15
417.838	4.18
418.195	4.2
418.553	4.23
418.911	4.24
419.269	4.25
419.626	4.25
419.984	4.25
420.342	4.24
420.699	4.23
421.057	4.21
421.414	4.2
421.772	4.19
422.129	4.18
422.486	4.18
422.844	4.18
423.201	4.18
423.558	4.17
423.915	4.17
424.273	4.17
424.63	4.17
424.987	4.18
425.344	4.17
425.701	4.17
426.058	4.17
426.415	4.18
426.772	4.17
427.128	4.17
427.485	4.16
427.842	4.15
428.199	4.14
428.555	4.12
428.912	4.11
429.269	4.08
429.625	4.06
429.982	4.03
430.338	4
430.695	3.98
431.051	3.95
431.407	3.93
431.764	3.91
432.12	3.89
432.476	3.88
432.832	3.87
433.189	3.87
433.545	3.88
433.901	3.89
434.257	3.9
434.613	3.93
434.969	3.95
435.325	3.98
435.681	4.02
436.036	4.04
436.392	4.06
436.748	4.07
437.104	4.08
437.459	4.1
437.815	4.12
438.171	4.14
438.526	4.16
438.882	4.2
439.237	4.23
439.593	4.27
439.948	4.29
440.304	4.33
440.659	4.35
441.014	4.37
441.369	4.4
441.725	4.41
442.08	4.43
442.435	4.44
442.79	4.45
443.145	4.46
443.5	4.46
443.855	4.46
444.21	4.46
444.565	4.46
444.92	4.45
445.275	4.45
445.629	4.44
445.984	4.43
446.339	4.42
446.693	4.41
447.048	4.4
447.403	4.38
447.757	4.36
448.112	4.34
448.466	4.32
448.82	4.3
449.175	4.28
449.529	4.26
449.883	4.24
450.238	4.22
450.592	4.22
450.946	4.21
451.3	4.2
451.654	4.21
452.008	4.21
452.362	4.22
452.716	4.22
453.07	4.22
453.424	4.21
453.778	4.21
454.132	4.2
454.486	4.19
454.839	4.18
455.193	4.16
455.547	4.15
455.9	4.12
456.254	4.1
456.607	4.07
456.961	4.05
457.314	4.02
457.668	4.01
458.021	4.01
458.375	4
458.728	4
459.081	4
459.434	4
459.787	4.01
460.141	4.02
460.494	4.02
460.847	4.03
461.2	4.04
461.553	4.04
461.906	4.04
462.259	4.04
462.611	4.04
462.964	4.05
463.317	4.05
463.67	4.06
464.022	4.06
464.375	4.06
464.728	4.07
465.08	4.07
465.433	4.07
465.785	4.06
466.138	4.04
466.49	4.02
466.843	4
467.195	3.98
467.547	3.96
467.899	3.93
468.252	3.9
468.604	3.88
468.956	3.86
469.308	3.84
469.66	3.84
470.012	3.83
470.364	3.83
470.716	3.83
471.068	3.85
471.42	3.87
471.772	3.89
472.123	3.89
472.475	3.9
472.827	3.91
473.178	3.92
473.53	3.93
473.882	3.94
474.233	3.96
474.585	4
474.936	4.06
475.288	4.14
475.639	4.25
475.99	4.38
476.342	4.52
476.693	4.68
477.044	4.84
477.395	5
477.746	5.17
478.097	5.34
478.448	5.51
478.8	5.67
479.15	5.83
479.501	5.97
479.852	6.11
480.203	6.24
480.554	6.36
480.905	6.47
481.255	6.59
481.606	6.69
481.957	6.79
482.307	6.89
482.658	6.98
483.009	7.07
483.359	7.15
483.709	7.23
484.06	7.31
484.41	7.39
484.761	7.46
485.111	7.53
485.461	7.59
485.811	7.66
486.162	7.71
486.512	7.76
486.862	7.8
487.212	7.83
487.562	7.85
487.912	7.86
488.262	7.87
488.612	7.86
488.961	7.84
489.311	7.8
489.661	7.74
490.011	7.65
490.36	7.55
490.71	7.43
491.06	7.3
491.409	7.17
491.759	7.02
492.108	6.87
492.458	6.71
492.807	6.55
493.157	6.39
493.506	6.24
493.855	6.09
494.204	5.96
494.554	5.82
494.903	5.7
495.252	5.58
495.601	5.46
495.95	5.35
496.299	5.24
496.648	5.14
496.997	5.05
497.346	4.96
497.695	4.87
498.043	4.78
498.392	4.7
498.741	4.62
499.09	4.55
499.438	4.47
499.787	4.41
500.135	4.34
500.484	4.28
500.832	4.23
501.181	4.19
501.529	4.16
501.878	4.15
502.226	4.14
502.574	4.13
502.923	4.12
503.271	4.12
503.619	4.12
503.967	4.12
504.315	4.11
504.663	4.11
505.011	4.1
505.359	4.09
505.707	4.09
506.055	4.08
506.403	4.08
506.751	4.08
507.098	4.08
507.446	4.09
507.794	4.09
508.141	4.1
508.489	4.11
508.837	4.12
509.184	4.13
509.531	4.14
509.879	4.15
510.226	4.16
510.574	4.18
510.921	4.19
511.268	4.21
511.616	4.23
511.963	4.25
512.31	4.27
512.657	4.29
513.004	4.3
513.351	4.32
513.698	4.33
514.045	4.34
514.392	4.34
514.739	4.34
515.086	4.34
515.432	4.33
515.779	4.33
516.126	4.33
516.473	4.32
516.819	4.33
517.166	4.33
517.512	4.34
517.859	4.35
518.205	4.37
518.552	4.39
518.898	4.42
519.245	4.46
519.591	4.51
519.937	4.58
520.283	4.66
520.629	4.76
520.976	4.87
521.322	4.98
521.668	5.1
522.014	5.22
522.36	5.34
522.706	5.45
523.052	5.56
523.398	5.67
523.743	5.76
524.089	5.83
524.435	5.9
524.781	5.96
525.126	6.02
525.472	6.07
525.817	6.12
526.163	6.17
526.509	6.21
526.854	6.26
527.199	6.3
527.545	6.34
527.89	6.39
528.235	6.44
528.581	6.48
528.926	6.52
529.271	6.56
529.616	6.6
529.961	6.63
530.306	6.66
530.651	6.69
530.996	6.71
531.341	6.71
531.686	6.72
532.031	6.72
532.376	6.73
532.721	6.73
533.065	6.74
533.41	6.74
533.755	6.74
534.099	6.73
534.444	6.7
534.788	6.67
535.133	6.63
535.477	6.59
535.822	6.54
536.166	6.48
536.51	6.42
536.855	6.35
537.199	6.27
537.543	6.19
537.887	6.12
538.231	6.07
538.576	6.01
538.92	5.96
539.264	5.9
539.608	5.84
539.951	5.79
540.295	5.73
540.639	5.67
540.983	5.6
541.327	5.54
541.671	5.47
542.014	5.41
542.358	5.35
542.701	5.31
543.045	5.28
543.389	5.26
543.732	5.23
544.075	5.22
544.419	5.19
544.762	5.18
545.105	5.17
545.449	5.16
545.792	5.15
546.135	5.14
546.478	5.13
546.821	5.11
547.165	5.08
547.508	5.04
547.851	4.99
548.194	4.94
548.536	4.88
548.879	4.82
549.222	4.75
549.565	4.68
549.908	4.61
550.25	4.54
550.593	4.49
550.936	4.44
551.278	4.41
551.621	4.38
551.963	4.35
552.306	4.32
552.648	4.3
552.991	4.29
553.333	4.27
553.675	4.27
554.017	4.26
554.36	4.27
554.702	4.27
555.044	4.28
555.386	4.29
555.728	4.31
556.07	4.32
556.412	4.34
556.754	4.34
557.096	4.34
557.438	4.34
557.78	4.35
558.121	4.34
558.463	4.35
558.805	4.35
559.147	4.35
559.488	4.36
559.83	4.36
560.171	4.36
560.513	4.36
560.854	4.36
561.196	4.36
561.537	4.36
561.878	4.36
562.22	4.36
562.561	4.36
562.902	4.36
563.243	4.36
563.584	4.36
563.925	4.37
564.266	4.37
564.607	4.37
564.948	4.37
565.289	4.38
565.63	4.38
565.971	4.39
566.312	4.39
566.653	4.4
566.993	4.4
567.334	4.4
567.675	4.4
568.015	4.41
568.356	4.41
568.696	4.41
569.037	4.41
569.377	4.42
569.718	4.42
570.058	4.42
570.398	4.42
570.739	4.42
571.079	4.42
571.419	4.42
571.759	4.42
572.099	4.43
572.439	4.43
572.779	4.43
573.119	4.43
573.459	4.42
573.799	4.43
574.139	4.42
574.479	4.43
574.819	4.42
575.158	4.42
575.498	4.42
575.838	4.42
576.177	4.42
576.517	4.42
576.856	4.43
577.196	4.43
577.535	4.43
577.875	4.43
578.214	4.42
578.553	4.42
578.893	4.42
579.232	4.42
579.571	4.42
579.91	4.42
580.25	4.42
580.589	4.41
580.928	4.41
581.267	4.41
581.606	4.41
581.945	4.4
582.283	4.41
582.622	4.41
582.961	4.41
583.3	4.41
583.639	4.4
583.977	4.4
584.316	4.4
584.654	4.4
584.993	4.4
585.332	4.4
585.67	4.4
586.008	4.4
586.347	4.4
586.685	4.4
587.024	4.4
587.362	4.4
587.7	4.4
588.038	4.41
588.376	4.41
588.715	4.4
589.053	4.41
589.391	4.42
589.729	4.42
590.067	4.43
590.404	4.43
590.742	4.43
591.08	4.44
591.418	4.44
591.756	4.44
592.093	4.45
592.431	4.45
592.769	4.46
593.106	4.46
593.444	4.47
593.781	4.46
594.119	4.46
594.456	4.46
594.793	4.46
595.131	4.46
595.468	4.47
595.805	4.47
596.143	4.47
596.48	4.47
596.817	4.47
597.154	4.48
597.491	4.48
597.828	4.48
598.165	4.49
598.502	4.49
598.839	4.5
599.176	4.51
599.512	4.51
599.849	4.51
600.186	4.52
600.523	4.52
600.859	4.52
601.196	4.52
601.532	4.53
601.869	4.53
602.205	4.53
602.542	4.54
602.878	4.54
603.215	4.54
603.551	4.54
603.887	4.54
604.223	4.54
604.56	4.54
604.896	4.54
605.232	4.54
605.568	4.54
605.904	4.54
606.24	4.54
606.576	4.54
606.912	4.53
607.248	4.53
607.583	4.54
607.919	4.53
608.255	4.54
608.591	4.55
608.926	4.55
609.262	4.55
609.597	4.54
609.933	4.54
610.268	4.54
610.604	4.54
610.939	4.54
611.275	4.54
611.61	4.54
611.945	4.55
612.281	4.55
612.616	4.54
612.951	4.54
613.286	4.53
613.621	4.54
613.956	4.54
614.291	4.54
614.626	4.54
614.961	4.54
615.296	4.54
615.631	4.54
615.966	4.55
616.3	4.54
616.635	4.54
616.97	4.55
617.304	4.55
617.639	4.55
617.973	4.55
618.308	4.55
618.642	4.55
618.977	4.55
619.311	4.55
619.646	4.55
619.98	4.56
620.314	4.56
620.648	4.56
620.983	4.57
621.317	4.57
621.651	4.57
621.985	4.58
622.319	4.58
622.653	4.58
622.987	4.58
623.321	4.59
623.655	4.59
623.988	4.59
624.322	4.6
624.656	4.6
624.99	4.6
625.323	4.6
625.657	4.6
625.99	4.61
626.324	4.61
626.657	4.61
626.991	4.62
627.324	4.61
627.658	4.61
627.991	4.61
628.324	4.62
628.657	4.62
628.991	4.63
629.324	4.63
629.657	4.63
629.99	4.63
630.323	4.64
630.656	4.64
630.989	4.64
631.322	4.64
631.655	4.65
631.987	4.65
632.32	4.66
632.653	4.66
632.986	4.66
633.318	4.67
633.651	4.67
633.984	4.67
634.316	4.67
634.649	4.67
634.981	4.68
635.313	4.68
635.646	4.67
635.978	4.67
636.31	4.67
636.643	4.68
636.975	4.68
637.307	4.69
637.639	4.69
637.971	4.69
638.303	4.68
638.635	4.68
638.967	4.68
639.299	4.68
639.631	4.68
639.963	4.69
640.295	4.7
640.626	4.7
640.958	4.7
641.29	4.7
641.621	4.71
641.953	4.71
642.285	4.7
642.616	4.71
642.948	4.7
643.279	4.71
643.61	4.71
643.942	4.71
644.273	4.7
644.604	4.72
644.936	4.71
645.267	4.71
645.598	4.71
645.929	4.71
646.26	4.71
646.591	4.71
646.922	4.71
647.253	4.71
647.584	4.72
647.915	4.72
648.245	4.71
648.576	4.71
648.907	4.71
649.238	4.72
649.568	4.73
649.899	4.73
650.229	4.73
650.56	4.74
650.89	4.74
651.221	4.74
651.551	4.74
651.882	4.75
652.212	4.76
652.542	4.77
652.872	4.76
653.203	4.77
653.533	4.76
653.863	4.77
654.193	4.77
654.523	4.78
654.853	4.77
655.183	4.78
655.513	4.78
655.843	4.78
656.172	4.78
656.502	4.79
656.832	4.79
657.162	4.79
657.491	4.79
657.821	4.8
658.15	4.8
658.48	4.81
658.809	4.81
659.139	4.81
659.468	4.81
659.798	4.81
660.127	4.82
660.456	4.83
660.785	4.84
661.115	4.84
661.444	4.85
661.773	4.85
662.102	4.86
662.431	4.86
662.76	4.86
663.089	4.86
663.418	4.87
663.747	4.87
664.076	4.88
664.404	4.88
664.733	4.89
665.062	4.9
665.39	4.91
665.719	4.91
666.048	4.92
666.376	4.92
666.705	4.93
667.033	4.94
667.362	4.94
667.69	4.94
668.018	4.94
668.347	4.95
668.675	4.95
669.003	4.95
669.331	4.95
669.659	4.96
669.987	4.95
670.315	4.96
670.643	4.97
670.971	4.97
671.299	4.97
671.627	4.97
671.955	4.97
672.283	4.97
672.61	4.98
672.938	4.98
673.266	4.99
673.593	4.99
673.921	4.98
674.249	4.98
674.576	4.98
674.904	4.99
675.231	4.99
675.558	4.99
675.886	5
676.213	5
676.54	5.01
676.867	5.01
677.195	5
677.522	5
677.849	5
678.176	5
678.503	5
678.83	5
679.157	5.01
679.484	5.01
679.81	5
680.137	4.99
680.464	5
680.791	5.01
681.117	5.02
681.444	5.02
681.771	5.02
682.097	5.03
682.424	5.04
