Data from UWBM59056_Reflection_00002.txt Node
Date: Sun May 02 13:43:56 EDT 2021
User: vgr7
Spectrometer: USB2G7710
Scans to average: 10
Trigger mode: 4
Integration Time (sec): 1.000000E-1
Electric dark correction enabled: true
Boxcar width: 20
XAxis mode: Wavelengths
Number of Pixels in Spectrum: 2048
>>>>>Begin Spectral Data<<<<<
177.721	95.8
178.105	85.56
178.488	72.38
178.871	70
179.254	61.7
179.636	30.09
180.019	20.3
180.402	16.37
180.785	9.52
181.168	13.65
181.55	9.92
181.933	11.37
182.316	1.09
182.698	-4.46
183.081	-9.79
183.463	-8.77
183.846	-9.95
184.228	-5.11
184.611	-4.03
184.993	-2.35
185.376	-1.26
185.758	3.83
186.14	4.57
186.522	5.25
186.904	2.18
187.287	0.92
187.669	3.15
188.051	2.76
188.433	0.85
188.815	-3.19
189.197	-2.68
189.579	-3.2
189.961	-6.37
190.342	-6.04
190.724	-4.08
191.106	-4.37
191.488	-3.41
191.869	-5.06
192.251	-7.85
192.633	-9.38
193.014	-10.6
193.396	-11.98
193.777	-10.36
194.159	-10.03
194.54	-9.75
194.922	-11.95
195.303	-12.43
195.684	-11.6
196.065	-12.24
196.447	-10.82
196.828	-12.87
197.209	-14.1
197.59	-16.58
197.971	-14.33
198.352	-12.2
198.733	-11.32
199.114	-10.59
199.495	-9.79
199.876	-12.32
200.257	-12.66
200.638	-14.32
201.018	-12.81
201.399	-12.76
201.78	-13.64
202.16	-14.66
202.541	-14.69
202.922	-15.84
203.302	-15.33
203.683	-14.8
204.063	-14.03
204.444	-14.48
204.824	-15.49
205.204	-16.14
205.585	-14.12
205.965	-12.36
206.345	-12.55
206.725	-11.68
207.106	-13.32
207.486	-13.78
207.866	-11.76
208.246	-11.97
208.626	-13.12
209.006	-14.31
209.386	-15.59
209.766	-16.04
210.145	-15.8
210.525	-15.49
210.905	-14
211.285	-16.72
211.664	-16.51
212.044	-17.74
212.424	-18.36
212.803	-17.86
213.183	-16.93
213.562	-15.7
213.942	-16.37
214.321	-16.13
214.701	-17.93
215.08	-17.75
215.459	-17.64
215.838	-17.51
216.218	-17.25
216.597	-18.98
216.976	-18.27
217.355	-17.23
217.734	-17.39
218.113	-15.26
218.492	-14.76
218.871	-14.94
219.25	-14.36
219.629	-14.51
220.008	-12.95
220.387	-13.49
220.766	-11.04
221.144	-11.1
221.523	-10.95
221.902	-11.7
222.28	-11.76
222.659	-11.2
223.037	-9.98
223.416	-8.91
223.794	-8.02
224.173	-6.83
224.551	-5.84
224.929	-4.59
225.308	-4.5
225.686	-4.17
226.064	-3.41
226.442	-3.71
226.821	-2.24
227.199	-1.34
227.577	-0.83
227.955	0.22
228.333	0.62
228.711	0.54
229.089	-0.01
229.467	-0.15
229.845	-0.01
230.222	0.59
230.6	0.93
230.978	1.31
231.356	1.22
231.733	1.41
232.111	1.43
232.488	1.33
232.866	1.14
233.243	1.22
233.621	1.18
233.998	1.7
234.376	1.84
234.753	1.68
235.13	2.04
235.508	2.37
235.885	2.49
236.262	2.44
236.639	2.44
237.016	2.6
237.393	2.91
237.77	3.12
238.147	3.21
238.524	3.18
238.901	3.15
239.278	3.25
239.655	3.31
240.032	3.36
240.409	3.44
240.785	3.55
241.162	3.59
241.539	3.58
241.915	3.71
242.292	3.72
242.668	3.73
243.045	3.71
243.421	3.66
243.798	3.66
244.174	3.7
244.551	3.73
244.927	3.76
245.303	3.8
245.679	3.8
246.056	3.74
246.432	3.75
246.808	3.73
247.184	3.76
247.56	3.77
247.936	3.75
248.312	3.78
248.688	3.8
249.064	3.82
249.44	3.75
249.815	3.74
250.191	3.7
250.567	3.71
250.943	3.66
251.318	3.66
251.694	3.69
252.069	3.7
252.445	3.69
252.82	3.67
253.196	3.62
253.571	3.62
253.947	3.63
254.322	3.6
254.697	3.59
255.073	3.57
255.448	3.57
255.823	3.53
256.198	3.49
256.573	3.46
256.948	3.46
257.323	3.41
257.698	3.37
258.073	3.31
258.448	3.29
258.823	3.29
259.198	3.28
259.573	3.27
259.948	3.27
260.322	3.27
260.697	3.25
261.072	3.24
261.446	3.26
261.821	3.24
262.195	3.25
262.57	3.24
262.944	3.24
263.319	3.28
263.693	3.28
264.067	3.28
264.442	3.26
264.816	3.27
265.19	3.29
265.564	3.34
265.938	3.33
266.313	3.34
266.687	3.33
267.061	3.32
267.435	3.32
267.809	3.31
268.183	3.31
268.556	3.32
268.93	3.31
269.304	3.31
269.678	3.33
270.051	3.31
270.425	3.32
270.799	3.3
271.172	3.31
271.546	3.34
271.919	3.35
272.293	3.36
272.666	3.36
273.04	3.37
273.413	3.4
273.787	3.42
274.16	3.41
274.533	3.41
274.906	3.42
275.279	3.41
275.653	3.42
276.026	3.42
276.399	3.42
276.772	3.45
277.145	3.44
277.518	3.44
277.891	3.44
278.263	3.44
278.636	3.42
279.009	3.42
279.382	3.43
279.755	3.45
280.127	3.47
280.5	3.47
280.872	3.46
281.245	3.46
281.617	3.46
281.99	3.47
282.362	3.47
282.735	3.46
283.107	3.47
283.479	3.46
283.852	3.46
284.224	3.46
284.596	3.45
284.968	3.45
285.34	3.46
285.713	3.46
286.085	3.47
286.457	3.46
286.829	3.46
287.201	3.45
287.572	3.45
287.944	3.45
288.316	3.45
288.688	3.46
289.06	3.46
289.431	3.47
289.803	3.48
290.175	3.48
290.546	3.49
290.918	3.5
291.289	3.5
291.661	3.5
292.032	3.48
292.403	3.49
292.775	3.49
293.146	3.49
293.517	3.5
293.889	3.5
294.26	3.51
294.631	3.51
295.002	3.51
295.373	3.5
295.744	3.5
296.115	3.5
296.486	3.52
296.857	3.52
297.228	3.52
297.599	3.52
297.97	3.53
298.34	3.52
298.711	3.53
299.082	3.53
299.452	3.54
299.823	3.54
300.194	3.54
300.564	3.55
300.935	3.55
301.305	3.55
301.676	3.56
302.046	3.57
302.416	3.57
302.787	3.56
303.157	3.55
303.527	3.55
303.897	3.54
304.267	3.54
304.637	3.53
305.008	3.52
305.378	3.5
305.748	3.49
306.117	3.48
306.487	3.49
306.857	3.49
307.227	3.49
307.597	3.5
307.967	3.5
308.336	3.49
308.706	3.47
309.076	3.46
309.445	3.45
309.815	3.44
310.184	3.42
310.554	3.41
310.923	3.4
311.293	3.39
311.662	3.38
312.031	3.37
312.401	3.37
312.77	3.37
313.139	3.37
313.508	3.37
313.877	3.35
314.246	3.36
314.616	3.35
314.985	3.36
315.353	3.36
315.722	3.34
316.091	3.33
316.46	3.32
316.829	3.3
317.198	3.29
317.567	3.29
317.935	3.3
318.304	3.3
318.672	3.29
319.041	3.3
319.41	3.3
319.778	3.31
320.147	3.29
320.515	3.28
320.883	3.27
321.252	3.27
321.62	3.24
321.988	3.23
322.357	3.23
322.725	3.23
323.093	3.22
323.461	3.21
323.829	3.24
324.197	3.24
324.565	3.24
324.933	3.24
325.301	3.24
325.669	3.25
326.037	3.26
326.405	3.27
326.772	3.26
327.14	3.26
327.508	3.25
327.875	3.24
328.243	3.24
328.61	3.22
328.978	3.22
329.346	3.21
329.713	3.22
330.08	3.22
330.448	3.22
330.815	3.21
331.182	3.21
331.55	3.21
331.917	3.21
332.284	3.2
332.651	3.18
333.018	3.18
333.385	3.18
333.752	3.18
334.119	3.17
334.486	3.17
334.853	3.16
335.22	3.17
335.587	3.17
335.954	3.18
336.32	3.17
336.687	3.17
337.054	3.17
337.42	3.17
337.787	3.18
338.153	3.19
338.52	3.18
338.886	3.17
339.253	3.17
339.619	3.17
339.986	3.17
340.352	3.18
340.718	3.17
341.084	3.16
341.451	3.16
341.817	3.16
342.183	3.17
342.549	3.17
342.915	3.18
343.281	3.17
343.647	3.19
344.013	3.19
344.379	3.19
344.745	3.19
345.11	3.18
345.476	3.19
345.842	3.2
346.208	3.2
346.573	3.2
346.939	3.21
347.304	3.21
347.67	3.22
348.035	3.22
348.401	3.23
348.766	3.25
349.132	3.25
349.497	3.26
349.862	3.27
350.228	3.27
350.593	3.27
350.958	3.26
351.323	3.27
351.688	3.28
352.053	3.28
352.418	3.28
352.783	3.27
353.148	3.27
353.513	3.29
353.878	3.28
354.243	3.3
354.608	3.3
354.972	3.31
355.337	3.3
355.702	3.31
356.066	3.31
356.431	3.31
356.795	3.3
357.16	3.3
357.524	3.3
357.889	3.31
358.253	3.31
358.618	3.3
358.982	3.3
359.346	3.31
359.71	3.31
360.075	3.31
360.439	3.31
360.803	3.31
361.167	3.31
361.531	3.31
361.895	3.31
362.259	3.3
362.623	3.3
362.987	3.3
363.351	3.3
363.714	3.29
364.078	3.29
364.442	3.29
364.806	3.29
365.169	3.3
365.533	3.3
365.896	3.31
366.26	3.32
366.623	3.32
366.987	3.31
367.35	3.31
367.714	3.32
368.077	3.32
368.44	3.32
368.803	3.33
369.167	3.32
369.53	3.31
369.893	3.31
370.256	3.31
370.619	3.3
370.982	3.3
371.345	3.31
371.708	3.32
372.071	3.32
372.434	3.32
372.797	3.32
373.159	3.32
373.522	3.33
373.885	3.33
374.247	3.33
374.61	3.33
374.973	3.32
375.335	3.32
375.698	3.32
376.06	3.33
376.423	3.32
376.785	3.32
377.147	3.33
377.51	3.34
377.872	3.34
378.234	3.33
378.596	3.34
378.958	3.33
379.321	3.34
379.683	3.34
380.045	3.33
380.407	3.34
380.769	3.33
381.13	3.33
381.492	3.33
381.854	3.34
382.216	3.33
382.578	3.33
382.939	3.34
383.301	3.33
383.663	3.33
384.024	3.33
384.386	3.34
384.747	3.34
385.109	3.34
385.47	3.35
385.832	3.35
386.193	3.35
386.554	3.35
386.916	3.35
387.277	3.34
387.638	3.34
387.999	3.35
388.36	3.34
388.721	3.34
389.082	3.34
389.443	3.34
389.804	3.34
390.165	3.35
390.526	3.35
390.887	3.35
391.248	3.35
391.609	3.35
391.969	3.35
392.33	3.35
392.691	3.36
393.051	3.36
393.412	3.37
393.772	3.37
394.133	3.37
394.493	3.37
394.854	3.37
395.214	3.37
395.574	3.37
395.935	3.37
396.295	3.37
396.655	3.37
397.015	3.37
397.376	3.38
397.736	3.38
398.096	3.38
398.456	3.38
398.816	3.39
399.176	3.39
399.535	3.39
399.895	3.4
400.255	3.4
400.615	3.4
400.975	3.4
401.334	3.41
401.694	3.41
402.054	3.42
402.413	3.41
402.773	3.42
403.132	3.42
403.492	3.42
403.851	3.42
404.211	3.43
404.57	3.44
404.929	3.43
405.288	3.44
405.648	3.44
406.007	3.45
406.366	3.45
406.725	3.45
407.084	3.45
407.443	3.46
407.802	3.46
408.161	3.46
408.52	3.46
408.879	3.47
409.238	3.47
409.596	3.47
409.955	3.48
410.314	3.48
410.673	3.48
411.031	3.49
411.39	3.5
411.748	3.51
412.107	3.51
412.465	3.52
412.824	3.54
413.182	3.56
413.54	3.58
413.899	3.61
414.257	3.64
414.615	3.67
414.974	3.71
415.332	3.74
415.69	3.77
416.048	3.8
416.406	3.84
416.764	3.86
417.122	3.89
417.48	3.92
417.838	3.95
418.195	3.97
418.553	4
418.911	4.01
419.269	4.02
419.626	4.02
419.984	4.02
420.342	4.01
420.699	3.99
421.057	3.98
421.414	3.97
421.772	3.96
422.129	3.95
422.486	3.95
422.844	3.95
423.201	3.95
423.558	3.95
423.915	3.95
424.273	3.95
424.63	3.96
424.987	3.96
425.344	3.96
425.701	3.96
426.058	3.96
426.415	3.96
426.772	3.96
427.128	3.96
427.485	3.96
427.842	3.95
428.199	3.94
428.555	3.93
428.912	3.91
429.269	3.89
429.625	3.87
429.982	3.85
430.338	3.83
430.695	3.81
431.051	3.78
431.407	3.76
431.764	3.75
432.12	3.73
432.476	3.72
432.832	3.71
433.189	3.71
433.545	3.72
433.901	3.73
434.257	3.75
434.613	3.77
434.969	3.79
435.325	3.82
435.681	3.86
436.036	3.87
436.392	3.89
436.748	3.9
437.104	3.91
437.459	3.93
437.815	3.94
438.171	3.96
438.526	3.98
438.882	4.01
439.237	4.05
439.593	4.08
439.948	4.11
440.304	4.14
440.659	4.17
441.014	4.18
441.369	4.21
441.725	4.22
442.08	4.24
442.435	4.25
442.79	4.26
443.145	4.26
443.5	4.26
443.855	4.26
444.21	4.26
444.565	4.26
444.92	4.25
445.275	4.24
445.629	4.24
445.984	4.23
446.339	4.22
446.693	4.21
447.048	4.2
447.403	4.19
447.757	4.17
448.112	4.15
448.466	4.13
448.82	4.11
449.175	4.09
449.529	4.08
449.883	4.07
450.238	4.05
450.592	4.05
450.946	4.04
451.3	4.04
451.654	4.05
452.008	4.05
452.362	4.06
452.716	4.06
453.07	4.06
453.424	4.06
453.778	4.05
454.132	4.04
454.486	4.03
454.839	4.02
455.193	4
455.547	3.99
455.9	3.96
456.254	3.95
456.607	3.92
456.961	3.89
457.314	3.88
457.668	3.87
458.021	3.87
458.375	3.86
458.728	3.86
459.081	3.87
459.434	3.88
459.787	3.89
460.141	3.9
460.494	3.9
460.847	3.91
461.2	3.92
461.553	3.92
461.906	3.93
462.259	3.93
462.611	3.93
462.964	3.94
463.317	3.95
463.67	3.95
464.022	3.95
464.375	3.95
464.728	3.96
465.08	3.96
465.433	3.96
465.785	3.96
466.138	3.95
466.49	3.93
466.843	3.91
467.195	3.89
467.547	3.87
467.899	3.85
468.252	3.82
468.604	3.8
468.956	3.78
469.308	3.76
469.66	3.76
470.012	3.76
470.364	3.76
470.716	3.77
471.068	3.78
471.42	3.8
471.772	3.82
472.123	3.83
472.475	3.84
472.827	3.85
473.178	3.86
473.53	3.87
473.882	3.88
474.233	3.9
474.585	3.93
474.936	3.99
475.288	4.07
475.639	4.17
475.99	4.29
476.342	4.43
476.693	4.58
477.044	4.74
477.395	4.9
477.746	5.06
478.097	5.22
478.448	5.39
478.8	5.55
479.15	5.7
479.501	5.84
479.852	5.97
480.203	6.09
480.554	6.21
480.905	6.32
481.255	6.43
481.606	6.53
481.957	6.63
482.307	6.72
482.658	6.8
483.009	6.89
483.359	6.97
483.709	7.05
484.06	7.12
484.41	7.19
484.761	7.26
485.111	7.33
485.461	7.4
485.811	7.46
486.162	7.51
486.512	7.55
486.862	7.59
487.212	7.62
487.562	7.63
487.912	7.64
488.262	7.65
488.612	7.64
488.961	7.63
489.311	7.59
489.661	7.52
490.011	7.44
490.36	7.34
490.71	7.23
491.06	7.11
491.409	6.97
491.759	6.83
492.108	6.69
492.458	6.54
492.807	6.38
493.157	6.23
493.506	6.08
493.855	5.94
494.204	5.81
494.554	5.68
494.903	5.56
495.252	5.44
495.601	5.34
495.95	5.23
496.299	5.13
496.648	5.04
496.997	4.95
497.346	4.86
497.695	4.78
498.043	4.7
498.392	4.62
498.741	4.54
499.09	4.47
499.438	4.4
499.787	4.33
500.135	4.27
500.484	4.21
500.832	4.16
501.181	4.13
501.529	4.1
501.878	4.09
502.226	4.08
502.574	4.08
502.923	4.08
503.271	4.07
503.619	4.07
503.967	4.07
504.315	4.07
504.663	4.06
505.011	4.05
505.359	4.05
505.707	4.05
506.055	4.04
506.403	4.04
506.751	4.04
507.098	4.05
507.446	4.06
507.794	4.06
508.141	4.08
508.489	4.09
508.837	4.1
509.184	4.12
509.531	4.13
509.879	4.14
510.226	4.15
510.574	4.16
510.921	4.18
511.268	4.19
511.616	4.21
511.963	4.22
512.31	4.24
512.657	4.26
513.004	4.27
513.351	4.29
513.698	4.29
514.045	4.3
514.392	4.3
514.739	4.3
515.086	4.3
515.432	4.29
515.779	4.29
516.126	4.29
516.473	4.28
516.819	4.28
517.166	4.28
517.512	4.29
517.859	4.3
518.205	4.32
518.552	4.34
518.898	4.37
519.245	4.41
519.591	4.46
519.937	4.52
520.283	4.61
520.629	4.7
520.976	4.8
521.322	4.91
521.668	5.02
522.014	5.13
522.36	5.24
522.706	5.35
523.052	5.46
523.398	5.56
523.743	5.64
524.089	5.72
524.435	5.78
524.781	5.84
525.126	5.89
525.472	5.95
525.817	6
526.163	6.05
526.509	6.09
526.854	6.14
527.199	6.18
527.545	6.22
527.89	6.27
528.235	6.31
528.581	6.36
528.926	6.4
529.271	6.43
529.616	6.47
529.961	6.5
530.306	6.53
530.651	6.55
530.996	6.56
531.341	6.58
531.686	6.58
532.031	6.59
532.376	6.59
532.721	6.59
533.065	6.6
533.41	6.6
533.755	6.6
534.099	6.59
534.444	6.56
534.788	6.53
535.133	6.5
535.477	6.46
535.822	6.41
536.166	6.35
536.51	6.29
536.855	6.22
537.199	6.14
537.543	6.07
537.887	6
538.231	5.95
538.576	5.9
538.92	5.84
539.264	5.79
539.608	5.73
539.951	5.67
540.295	5.62
540.639	5.56
540.983	5.49
541.327	5.43
541.671	5.37
542.014	5.32
542.358	5.26
542.701	5.23
543.045	5.2
543.389	5.18
543.732	5.16
544.075	5.14
544.419	5.12
544.762	5.11
545.105	5.1
545.449	5.09
545.792	5.08
546.135	5.07
546.478	5.06
546.821	5.04
547.165	5.01
547.508	4.98
547.851	4.93
548.194	4.88
548.536	4.82
548.879	4.76
549.222	4.69
549.565	4.63
549.908	4.56
550.25	4.5
550.593	4.44
550.936	4.39
551.278	4.36
551.621	4.33
551.963	4.3
552.306	4.28
552.648	4.26
552.991	4.25
553.333	4.23
553.675	4.23
554.017	4.23
554.36	4.23
554.702	4.23
555.044	4.25
555.386	4.26
555.728	4.27
556.07	4.28
556.412	4.3
556.754	4.29
557.096	4.29
557.438	4.29
557.78	4.29
558.121	4.29
558.463	4.29
558.805	4.29
559.147	4.29
559.488	4.3
559.83	4.3
560.171	4.3
560.513	4.3
560.854	4.31
561.196	4.31
561.537	4.31
561.878	4.31
562.22	4.31
562.561	4.31
562.902	4.31
563.243	4.32
563.584	4.32
563.925	4.32
564.266	4.32
564.607	4.33
564.948	4.33
565.289	4.33
565.63	4.33
565.971	4.34
566.312	4.34
566.653	4.34
566.993	4.35
567.334	4.35
567.675	4.35
568.015	4.36
568.356	4.36
568.696	4.36
569.037	4.36
569.377	4.36
569.718	4.36
570.058	4.36
570.398	4.36
570.739	4.37
571.079	4.37
571.419	4.38
571.759	4.38
572.099	4.38
572.439	4.38
572.779	4.38
573.119	4.38
573.459	4.38
573.799	4.38
574.139	4.38
574.479	4.38
574.819	4.38
575.158	4.38
575.498	4.38
575.838	4.38
576.177	4.38
576.517	4.38
576.856	4.38
577.196	4.38
577.535	4.38
577.875	4.38
578.214	4.38
578.553	4.38
578.893	4.38
579.232	4.38
579.571	4.38
579.91	4.38
580.25	4.38
580.589	4.38
580.928	4.37
581.267	4.37
581.606	4.37
581.945	4.36
582.283	4.37
582.622	4.37
582.961	4.37
583.3	4.37
583.639	4.37
583.977	4.37
584.316	4.37
584.654	4.37
584.993	4.37
585.332	4.37
585.67	4.37
586.008	4.37
586.347	4.37
586.685	4.37
587.024	4.37
587.362	4.37
587.7	4.37
588.038	4.37
588.376	4.38
588.715	4.37
589.053	4.38
589.391	4.39
589.729	4.39
590.067	4.39
590.404	4.4
590.742	4.4
591.08	4.4
591.418	4.4
591.756	4.4
592.093	4.41
592.431	4.4
592.769	4.41
593.106	4.41
593.444	4.42
593.781	4.42
594.119	4.42
594.456	4.42
594.793	4.42
595.131	4.42
595.468	4.42
595.805	4.43
596.143	4.43
596.48	4.43
596.817	4.43
597.154	4.43
597.491	4.43
597.828	4.44
598.165	4.44
598.502	4.45
598.839	4.45
599.176	4.45
599.512	4.45
599.849	4.45
600.186	4.45
600.523	4.45
600.859	4.46
601.196	4.46
601.532	4.46
601.869	4.47
602.205	4.47
602.542	4.47
602.878	4.47
603.215	4.46
603.551	4.46
603.887	4.47
604.223	4.47
604.56	4.47
604.896	4.47
605.232	4.47
605.568	4.47
605.904	4.47
606.24	4.48
606.576	4.47
606.912	4.47
607.248	4.47
607.583	4.46
607.919	4.47
608.255	4.47
608.591	4.47
608.926	4.47
609.262	4.47
609.597	4.47
609.933	4.47
610.268	4.48
610.604	4.48
610.939	4.47
611.275	4.47
611.61	4.47
611.945	4.48
612.281	4.47
612.616	4.47
612.951	4.47
613.286	4.47
613.621	4.47
613.956	4.48
614.291	4.48
614.626	4.48
614.961	4.48
615.296	4.48
615.631	4.47
615.966	4.48
616.3	4.47
616.635	4.47
616.97	4.48
617.304	4.49
617.639	4.48
617.973	4.48
618.308	4.48
618.642	4.48
618.977	4.48
619.311	4.48
619.646	4.49
619.98	4.49
620.314	4.49
620.648	4.5
620.983	4.51
621.317	4.51
621.651	4.51
621.985	4.52
622.319	4.53
622.653	4.53
622.987	4.53
623.321	4.54
623.655	4.55
623.988	4.54
624.322	4.54
624.656	4.55
624.99	4.55
625.323	4.55
625.657	4.55
625.99	4.56
626.324	4.55
626.657	4.56
626.991	4.57
627.324	4.58
627.658	4.57
627.991	4.57
628.324	4.57
628.657	4.58
628.991	4.59
629.324	4.59
629.657	4.59
629.99	4.6
630.323	4.61
630.656	4.61
630.989	4.61
631.322	4.62
631.655	4.62
631.987	4.63
632.32	4.63
632.653	4.64
632.986	4.64
633.318	4.65
633.651	4.65
633.984	4.65
634.316	4.65
634.649	4.65
634.981	4.65
635.313	4.65
635.646	4.65
635.978	4.65
636.31	4.65
636.643	4.66
636.975	4.66
637.307	4.66
637.639	4.67
637.971	4.67
638.303	4.67
638.635	4.67
638.967	4.67
639.299	4.67
639.631	4.68
639.963	4.69
640.295	4.69
640.626	4.69
640.958	4.7
641.29	4.71
641.621	4.71
641.953	4.71
642.285	4.7
642.616	4.71
642.948	4.71
643.279	4.71
643.61	4.72
643.942	4.72
644.273	4.71
644.604	4.72
644.936	4.71
645.267	4.71
645.598	4.71
645.929	4.71
646.26	4.71
646.591	4.7
646.922	4.7
647.253	4.71
647.584	4.71
647.915	4.72
648.245	4.71
648.576	4.72
648.907	4.72
649.238	4.72
649.568	4.72
649.899	4.72
650.229	4.72
650.56	4.73
650.89	4.73
651.221	4.73
651.551	4.73
651.882	4.74
652.212	4.75
652.542	4.75
652.872	4.76
653.203	4.76
653.533	4.75
653.863	4.75
654.193	4.76
654.523	4.76
654.853	4.76
655.183	4.77
655.513	4.78
655.843	4.78
656.172	4.78
656.502	4.79
656.832	4.8
657.162	4.79
657.491	4.8
657.821	4.8
658.15	4.8
658.48	4.81
658.809	4.82
659.139	4.83
659.468	4.83
659.798	4.84
660.127	4.84
660.456	4.85
660.785	4.85
661.115	4.85
661.444	4.86
661.773	4.87
662.102	4.87
662.431	4.88
662.76	4.89
663.089	4.9
663.418	4.91
663.747	4.91
664.076	4.92
664.404	4.92
664.733	4.92
665.062	4.93
665.39	4.94
665.719	4.94
666.048	4.95
666.376	4.95
666.705	4.96
667.033	4.97
667.362	4.97
667.69	4.97
668.018	4.98
668.347	4.98
668.675	4.98
669.003	4.99
669.331	4.99
669.659	4.99
669.987	4.99
670.315	5.01
670.643	5.02
670.971	5.02
671.299	5.03
671.627	5.03
671.955	5.02
672.283	5.03
672.61	5.03
672.938	5.04
673.266	5.05
673.593	5.05
673.921	5.05
674.249	5.06
674.576	5.07
674.904	5.07
675.231	5.07
675.558	5.07
675.886	5.08
676.213	5.07
676.54	5.07
676.867	5.07
677.195	5.06
677.522	5.06
677.849	5.07
678.176	5.07
678.503	5.07
