Data from UWBM122617_Reflection_00006.txt Node
Date: Sun May 02 12:17:06 EDT 2021
User: vgr7
Spectrometer: USB2G7710
Scans to average: 10
Trigger mode: 4
Integration Time (sec): 1.000000E-1
Electric dark correction enabled: true
Boxcar width: 10
XAxis mode: Wavelengths
Number of Pixels in Spectrum: 2048
>>>>>Begin Spectral Data<<<<<
177.721	-325
178.105	118.18
178.488	61.48
178.871	116.46
179.254	-1.92
179.636	63.64
180.019	104.91
180.402	90
180.785	65.12
181.168	55.37
181.55	60.07
181.933	39.56
182.316	14.96
182.698	54.23
183.081	9.43
183.463	29.64
183.846	16.73
184.228	-1.21
184.611	-5.43
184.993	0.53
185.376	7.41
185.758	9.58
186.14	-2.37
186.522	2.79
186.904	1.4
187.287	-0.97
187.669	5.45
188.051	2.2
188.433	10.46
188.815	12.32
189.197	15.8
189.579	14.38
189.961	13.44
190.342	14.71
190.724	16.71
191.106	16.77
191.488	15.13
191.869	15.02
192.251	17.4
192.633	17.11
193.014	19.8
193.396	17.89
193.777	20.61
194.159	24.64
194.54	21.09
194.922	19.51
195.303	23.46
195.684	19.45
196.065	18.55
196.447	13.69
196.828	8.87
197.209	2.34
197.59	1.15
197.971	0.16
198.352	-2.08
198.733	5.8
199.114	4.51
199.495	5.34
199.876	5.66
200.257	5.19
200.638	6.74
201.018	6.98
201.399	7.57
201.78	3.28
202.16	-4.47
202.541	-5.62
202.922	-6
203.302	-8.72
203.683	-9.76
204.063	-7.85
204.444	-3.86
204.824	1.19
205.204	7.4
205.585	6.84
205.965	7.67
206.345	10.16
206.725	1.29
207.106	3.87
207.486	3.79
207.866	5.87
208.246	4.46
208.626	5.49
209.006	5.09
209.386	2.53
209.766	2.21
210.145	8.18
210.525	7.19
210.905	7.64
211.285	6.25
211.664	8.48
212.044	5.97
212.424	7.05
212.803	4.28
213.183	3.26
213.562	3.68
213.942	1.97
214.321	-2.77
214.701	-8.01
215.08	-8.29
215.459	-8.13
215.838	-9.66
216.218	-6.86
216.597	-9.97
216.976	-11.31
217.355	-7.76
217.734	-6.82
218.113	-7.53
218.492	-3.12
218.871	-0.03
219.25	5.47
219.629	3.74
220.008	6.2
220.387	7.01
220.766	5.59
221.144	4.18
221.523	5.89
221.902	5.13
222.28	7.56
222.659	11.27
223.037	11.95
223.416	14.27
223.794	12.76
224.173	11.19
224.551	10.85
224.929	10.7
225.308	11.05
225.686	9.65
226.064	10.18
226.442	10.68
226.821	9.27
227.199	6.82
227.577	6
227.955	5.83
228.333	5.08
228.711	4.72
229.089	5.44
229.467	5.61
229.845	6.73
230.222	7.2
230.6	7.32
230.978	7.43
231.356	6.84
231.733	7.24
232.111	7.18
232.488	7.21
232.866	6.65
233.243	5.68
233.621	6.46
233.998	6.11
234.376	5.72
234.753	6.7
235.13	7.37
235.508	8.59
235.885	8.47
236.262	8.45
236.639	9.03
237.016	9.08
237.393	9.06
237.77	8.76
238.147	8.51
238.524	8.8
238.901	8.75
239.278	8.08
239.655	7.9
240.032	7.67
240.409	7.6
240.785	7.56
241.162	7.55
241.539	7.27
241.915	7.27
242.292	7.14
242.668	6.85
243.045	6.83
243.421	6.67
243.798	6.55
244.174	6.41
244.551	6.36
244.927	6.23
245.303	6.1
245.679	6.09
246.056	6.04
246.432	6.01
246.808	5.96
247.184	6.03
247.56	6
247.936	6.02
248.312	6
248.688	6.01
249.064	6
249.44	6.01
249.815	6
250.191	6.02
250.567	6.08
250.943	6.01
251.318	6.06
251.694	6
252.069	6.01
252.445	5.97
252.82	5.93
253.196	5.96
253.571	5.9
253.947	5.93
254.322	5.77
254.697	5.68
255.073	5.68
255.448	5.72
255.823	5.65
256.198	5.53
256.573	5.46
256.948	5.44
257.323	5.45
257.698	5.38
258.073	5.33
258.448	5.26
258.823	5.27
259.198	5.22
259.573	5.25
259.948	5.28
260.322	5.29
260.697	5.29
261.072	5.27
261.446	5.27
261.821	5.25
262.195	5.18
262.57	5.2
262.944	5.18
263.319	5.17
263.693	5.18
264.067	5.21
264.442	5.25
264.816	5.25
265.19	5.25
265.564	5.29
265.938	5.27
266.313	5.26
266.687	5.17
267.061	5.14
267.435	5.16
267.809	5.12
268.183	5.08
268.556	5.09
268.93	5.12
269.304	5.11
269.678	5.08
270.051	5.14
270.425	5.09
270.799	5.07
271.172	5.05
271.546	5.07
271.919	5.09
272.293	5
272.666	4.98
273.04	5.01
273.413	4.92
273.787	4.92
274.16	4.93
274.533	4.98
274.906	4.96
275.279	4.95
275.653	4.91
276.026	4.86
276.399	4.84
276.772	4.81
277.145	4.83
277.518	4.86
277.891	4.85
278.263	4.91
278.636	4.95
279.009	4.93
279.382	4.85
279.755	4.84
280.127	4.91
280.5	4.89
280.872	4.82
281.245	4.9
281.617	4.89
281.99	4.89
282.362	4.87
282.735	4.88
283.107	4.83
283.479	4.85
283.852	4.88
284.224	4.89
284.596	4.86
284.968	4.84
285.34	4.82
285.713	4.85
286.085	4.79
286.457	4.81
286.829	4.79
287.201	4.83
287.572	4.83
287.944	4.8
288.316	4.85
288.688	4.86
289.06	4.83
289.431	4.86
289.803	4.84
290.175	4.83
290.546	4.86
290.918	4.91
291.289	4.91
291.661	4.91
292.032	4.89
292.403	4.87
292.775	4.84
293.146	4.86
293.517	4.85
293.889	4.89
294.26	4.84
294.631	4.88
295.002	4.87
295.373	4.91
295.744	4.91
296.115	4.9
296.486	4.89
296.857	4.9
297.228	4.89
297.599	4.89
297.97	4.88
298.34	4.86
298.711	4.83
299.082	4.8
299.452	4.82
299.823	4.82
300.194	4.86
300.564	4.87
300.935	4.86
301.305	4.85
301.676	4.79
302.046	4.77
302.416	4.76
302.787	4.75
303.157	4.73
303.527	4.77
303.897	4.76
304.267	4.74
304.637	4.74
305.008	4.75
305.378	4.75
305.748	4.74
306.117	4.74
306.487	4.7
306.857	4.73
307.227	4.68
307.597	4.66
307.967	4.62
308.336	4.61
308.706	4.63
309.076	4.6
309.445	4.63
309.815	4.58
310.184	4.58
310.554	4.59
310.923	4.53
311.293	4.49
311.662	4.45
312.031	4.44
312.401	4.45
312.77	4.43
313.139	4.44
313.508	4.43
313.877	4.43
314.246	4.4
314.616	4.4
314.985	4.39
315.353	4.41
315.722	4.39
316.091	4.41
316.46	4.39
316.829	4.41
317.198	4.42
317.567	4.46
317.935	4.46
318.304	4.43
318.672	4.46
319.041	4.49
319.41	4.52
319.778	4.57
320.147	4.53
320.515	4.49
320.883	4.49
321.252	4.5
321.62	4.48
321.988	4.51
322.357	4.53
322.725	4.53
323.093	4.51
323.461	4.53
323.829	4.5
324.197	4.48
324.565	4.48
324.933	4.47
325.301	4.51
325.669	4.51
326.037	4.51
326.405	4.47
326.772	4.42
327.14	4.4
327.508	4.35
327.875	4.38
328.243	4.41
328.61	4.39
328.978	4.4
329.346	4.36
329.713	4.33
330.08	4.29
330.448	4.31
330.815	4.3
331.182	4.28
331.55	4.28
331.917	4.27
332.284	4.22
332.651	4.22
333.018	4.17
333.385	4.15
333.752	4.15
334.119	4.16
334.486	4.17
334.853	4.17
335.22	4.19
335.587	4.16
335.954	4.17
336.32	4.16
336.687	4.14
337.054	4.16
337.42	4.18
337.787	4.18
338.153	4.17
338.52	4.21
338.886	4.22
339.253	4.19
339.619	4.19
339.986	4.22
340.352	4.2
340.718	4.26
341.084	4.26
341.451	4.25
341.817	4.24
342.183	4.25
342.549	4.28
342.915	4.25
343.281	4.25
343.647	4.25
344.013	4.27
344.379	4.27
344.745	4.26
345.11	4.27
345.476	4.27
345.842	4.27
346.208	4.22
346.573	4.22
346.939	4.25
347.304	4.24
347.67	4.23
348.035	4.25
348.401	4.19
348.766	4.2
349.132	4.19
349.497	4.21
349.862	4.2
350.228	4.19
350.593	4.22
350.958	4.21
351.323	4.18
351.688	4.16
352.053	4.16
352.418	4.17
352.783	4.14
353.148	4.14
353.513	4.14
353.878	4.17
354.243	4.17
354.608	4.16
354.972	4.19
355.337	4.18
355.702	4.16
356.066	4.18
356.431	4.15
356.795	4.16
357.16	4.15
357.524	4.14
357.889	4.14
358.253	4.14
358.618	4.14
358.982	4.17
359.346	4.16
359.71	4.15
360.075	4.12
360.439	4.15
360.803	4.14
361.167	4.11
361.531	4.11
361.895	4.09
362.259	4.08
362.623	4.06
362.987	4.06
363.351	4.07
363.714	4.07
364.078	4.07
364.442	4.06
364.806	4.06
365.169	4.08
365.533	4.06
365.896	4.05
366.26	4.06
366.623	4.04
366.987	4.05
367.35	4.07
367.714	4.09
368.077	4.08
368.44	4.09
368.803	4.09
369.167	4.1
369.53	4.11
369.893	4.13
370.256	4.14
370.619	4.13
370.982	4.13
371.345	4.11
371.708	4.14
372.071	4.15
372.434	4.14
372.797	4.12
373.159	4.14
373.522	4.14
373.885	4.15
374.247	4.15
374.61	4.15
374.973	4.14
375.335	4.13
375.698	4.14
376.06	4.15
376.423	4.16
376.785	4.15
377.147	4.15
377.51	4.15
377.872	4.15
378.234	4.16
378.596	4.16
378.958	4.17
379.321	4.17
379.683	4.18
380.045	4.19
380.407	4.18
380.769	4.17
381.13	4.17
381.492	4.16
381.854	4.15
382.216	4.16
382.578	4.16
382.939	4.18
383.301	4.17
383.663	4.17
384.024	4.17
384.386	4.19
384.747	4.18
385.109	4.19
385.47	4.18
385.832	4.18
386.193	4.2
386.554	4.18
386.916	4.18
387.277	4.17
387.638	4.16
387.999	4.17
388.36	4.17
388.721	4.18
389.082	4.18
389.443	4.17
389.804	4.16
390.165	4.17
390.526	4.16
390.887	4.16
391.248	4.17
391.609	4.18
391.969	4.17
392.33	4.18
392.691	4.17
393.051	4.18
393.412	4.16
393.772	4.16
394.133	4.17
394.493	4.17
394.854	4.17
395.214	4.18
395.574	4.19
395.935	4.18
396.295	4.17
396.655	4.17
397.015	4.19
397.376	4.19
397.736	4.18
398.096	4.18
398.456	4.18
398.816	4.17
399.176	4.16
399.535	4.17
399.895	4.16
400.255	4.16
400.615	4.16
400.975	4.17
401.334	4.17
401.694	4.17
402.054	4.16
402.413	4.17
402.773	4.17
403.132	4.17
403.492	4.17
403.851	4.18
404.211	4.18
404.57	4.19
404.929	4.2
405.288	4.2
405.648	4.19
406.007	4.2
406.366	4.21
406.725	4.22
407.084	4.21
407.443	4.22
407.802	4.22
408.161	4.23
408.52	4.23
408.879	4.23
409.238	4.23
409.596	4.24
409.955	4.23
410.314	4.24
410.673	4.23
411.031	4.23
411.39	4.23
411.748	4.24
412.107	4.23
412.465	4.23
412.824	4.23
413.182	4.24
413.54	4.24
413.899	4.23
414.257	4.23
414.615	4.24
414.974	4.24
415.332	4.25
415.69	4.25
416.048	4.25
416.406	4.27
416.764	4.29
417.122	4.29
417.48	4.3
417.838	4.3
418.195	4.31
418.553	4.32
418.911	4.33
419.269	4.34
419.626	4.35
419.984	4.36
420.342	4.36
420.699	4.37
421.057	4.38
421.414	4.38
421.772	4.39
422.129	4.4
422.486	4.4
422.844	4.4
423.201	4.4
423.558	4.4
423.915	4.4
424.273	4.4
424.63	4.4
424.987	4.39
425.344	4.39
425.701	4.39
426.058	4.39
426.415	4.38
426.772	4.37
427.128	4.36
427.485	4.35
427.842	4.36
428.199	4.35
428.555	4.34
428.912	4.34
429.269	4.34
429.625	4.33
429.982	4.33
430.338	4.33
430.695	4.33
431.051	4.32
431.407	4.32
431.764	4.32
432.12	4.32
432.476	4.32
432.832	4.32
433.189	4.32
433.545	4.32
433.901	4.33
434.257	4.33
434.613	4.34
434.969	4.34
435.325	4.34
435.681	4.35
436.036	4.35
436.392	4.36
436.748	4.36
437.104	4.36
437.459	4.37
437.815	4.38
438.171	4.39
438.526	4.39
438.882	4.39
439.237	4.4
439.593	4.41
439.948	4.41
440.304	4.42
440.659	4.43
441.014	4.42
441.369	4.42
441.725	4.43
442.08	4.43
442.435	4.44
442.79	4.44
443.145	4.45
443.5	4.45
443.855	4.45
444.21	4.45
444.565	4.45
444.92	4.45
445.275	4.45
445.629	4.44
445.984	4.45
446.339	4.45
446.693	4.45
447.048	4.45
447.403	4.45
447.757	4.45
448.112	4.44
448.466	4.45
448.82	4.45
449.175	4.45
449.529	4.44
449.883	4.44
450.238	4.43
450.592	4.42
450.946	4.42
451.3	4.41
451.654	4.41
452.008	4.41
452.362	4.41
452.716	4.4
453.07	4.39
453.424	4.39
453.778	4.39
454.132	4.39
454.486	4.39
454.839	4.39
455.193	4.39
455.547	4.39
455.9	4.4
456.254	4.4
456.607	4.41
456.961	4.42
457.314	4.43
457.668	4.43
458.021	4.44
458.375	4.45
458.728	4.45
459.081	4.45
459.434	4.46
459.787	4.46
460.141	4.46
460.494	4.46
460.847	4.46
461.2	4.46
461.553	4.46
461.906	4.46
462.259	4.46
462.611	4.46
462.964	4.46
463.317	4.46
463.67	4.45
464.022	4.44
464.375	4.43
464.728	4.42
465.08	4.42
465.433	4.42
465.785	4.42
466.138	4.41
466.49	4.4
466.843	4.41
467.195	4.41
467.547	4.41
467.899	4.42
468.252	4.42
468.604	4.42
468.956	4.42
469.308	4.43
469.66	4.42
470.012	4.41
470.364	4.41
470.716	4.41
471.068	4.41
471.42	4.41
471.772	4.41
472.123	4.41
472.475	4.41
472.827	4.41
473.178	4.41
473.53	4.41
473.882	4.42
474.233	4.42
474.585	4.42
474.936	4.42
475.288	4.43
475.639	4.42
475.99	4.43
476.342	4.44
476.693	4.44
477.044	4.44
477.395	4.45
477.746	4.45
478.097	4.46
478.448	4.49
478.8	4.57
479.15	4.7
479.501	4.85
479.852	5.01
480.203	5.19
480.554	5.37
480.905	5.56
481.255	5.75
481.606	5.93
481.957	6.11
482.307	6.29
482.658	6.45
483.009	6.59
483.359	6.7
483.709	6.8
484.06	6.9
484.41	7
484.761	7.09
485.111	7.18
485.461	7.27
485.811	7.34
486.162	7.38
486.512	7.37
486.862	7.34
487.212	7.28
487.562	7.2
487.912	7.1
488.262	6.99
488.612	6.87
488.961	6.74
489.311	6.59
489.661	6.45
490.011	6.3
490.36	6.15
490.71	5.99
491.06	5.83
491.409	5.66
491.759	5.53
492.108	5.42
492.458	5.31
492.807	5.22
493.157	5.13
493.506	5.04
493.855	4.96
494.204	4.88
494.554	4.8
494.903	4.74
495.252	4.68
495.601	4.62
495.95	4.57
496.299	4.51
496.648	4.46
496.997	4.42
497.346	4.4
497.695	4.4
498.043	4.42
498.392	4.46
498.741	4.51
499.09	4.54
499.438	4.55
499.787	4.56
500.135	4.57
500.484	4.58
500.832	4.58
501.181	4.58
501.529	4.59
501.878	4.58
502.226	4.59
502.574	4.59
502.923	4.59
503.271	4.59
503.619	4.58
503.967	4.59
504.315	4.6
504.663	4.6
505.011	4.6
505.359	4.61
505.707	4.61
506.055	4.61
506.403	4.62
506.751	4.62
507.098	4.63
507.446	4.63
507.794	4.63
508.141	4.63
508.489	4.64
508.837	4.64
509.184	4.65
509.531	4.65
509.879	4.65
510.226	4.66
510.574	4.66
510.921	4.67
511.268	4.67
511.616	4.67
511.963	4.67
512.31	4.67
512.657	4.67
513.004	4.68
513.351	4.69
513.698	4.69
514.045	4.7
514.392	4.71
514.739	4.71
515.086	4.71
515.432	4.72
515.779	4.72
516.126	4.73
516.473	4.74
516.819	4.73
517.166	4.74
517.512	4.74
517.859	4.74
518.205	4.74
518.552	4.75
518.898	4.75
519.245	4.75
519.591	4.75
519.937	4.75
520.283	4.75
520.629	4.75
520.976	4.74
521.322	4.74
521.668	4.74
522.014	4.75
522.36	4.75
522.706	4.75
523.052	4.77
523.398	4.81
523.743	4.88
524.089	4.97
524.435	5.07
524.781	5.18
525.126	5.3
525.472	5.41
525.817	5.52
526.163	5.63
526.509	5.72
526.854	5.8
527.199	5.86
527.545	5.9
527.89	5.93
528.235	5.96
528.581	5.98
528.926	6
529.271	6.02
529.616	6.04
529.961	6.05
530.306	6.06
530.651	6.04
530.996	6
531.341	5.94
531.686	5.86
532.031	5.77
532.376	5.66
532.721	5.54
533.065	5.4
533.41	5.29
533.755	5.18
534.099	5.09
534.444	5.03
534.788	4.97
535.133	4.94
535.477	4.91
535.822	4.88
536.166	4.85
536.51	4.83
536.855	4.81
537.199	4.8
537.543	4.8
537.887	4.8
538.231	4.81
538.576	4.83
538.92	4.84
539.264	4.86
539.608	4.89
539.951	4.92
540.295	4.96
540.639	4.97
540.983	4.98
541.327	4.97
541.671	4.96
542.014	4.97
542.358	4.96
542.701	4.96
543.045	4.97
543.389	4.98
543.732	4.97
544.075	4.97
544.419	4.96
544.762	4.94
545.105	4.93
545.449	4.9
545.792	4.88
546.135	4.85
546.478	4.83
546.821	4.81
547.165	4.8
547.508	4.79
547.851	4.8
548.194	4.81
548.536	4.82
548.879	4.84
549.222	4.84
549.565	4.84
549.908	4.83
550.25	4.83
550.593	4.82
550.936	4.82
551.278	4.81
551.621	4.81
551.963	4.81
552.306	4.82
552.648	4.81
552.991	4.79
553.333	4.79
553.675	4.79
554.017	4.8
554.36	4.8
554.702	4.79
555.044	4.79
555.386	4.78
555.728	4.78
556.07	4.78
556.412	4.77
556.754	4.76
557.096	4.76
557.438	4.76
557.78	4.76
558.121	4.76
558.463	4.75
558.805	4.76
559.147	4.76
559.488	4.76
559.83	4.76
560.171	4.77
560.513	4.78
560.854	4.78
561.196	4.77
561.537	4.79
561.878	4.79
562.22	4.79
562.561	4.79
562.902	4.8
563.243	4.82
563.584	4.81
563.925	4.82
564.266	4.83
564.607	4.83
564.948	4.84
565.289	4.84
565.63	4.85
565.971	4.85
566.312	4.86
566.653	4.87
566.993	4.87
567.334	4.86
567.675	4.86
568.015	4.86
568.356	4.86
568.696	4.86
569.037	4.86
569.377	4.87
569.718	4.87
570.058	4.88
570.398	4.87
570.739	4.88
571.079	4.88
571.419	4.88
571.759	4.88
572.099	4.88
572.439	4.88
572.779	4.89
573.119	4.89
573.459	4.88
573.799	4.89
574.139	4.89
574.479	4.9
574.819	4.9
575.158	4.91
575.498	4.91
575.838	4.9
576.177	4.9
576.517	4.91
576.856	4.9
577.196	4.9
577.535	4.89
577.875	4.89
578.214	4.88
578.553	4.89
578.893	4.88
579.232	4.87
579.571	4.86
579.91	4.84
580.25	4.85
580.589	4.84
580.928	4.83
581.267	4.83
581.606	4.83
581.945	4.81
582.283	4.82
582.622	4.82
582.961	4.82
583.3	4.83
583.639	4.83
583.977	4.83
584.316	4.83
584.654	4.83
584.993	4.84
585.332	4.85
585.67	4.84
586.008	4.85
586.347	4.87
586.685	4.88
587.024	4.89
587.362	4.88
587.7	4.89
588.038	4.89
588.376	4.89
588.715	4.9
589.053	4.91
589.391	4.9
589.729	4.9
590.067	4.89
590.404	4.89
590.742	4.89
591.08	4.88
591.418	4.89
591.756	4.89
592.093	4.89
592.431	4.89
592.769	4.9
593.106	4.9
593.444	4.88
593.781	4.88
594.119	4.88
594.456	4.89
594.793	4.89
595.131	4.9
595.468	4.9
595.805	4.9
596.143	4.9
596.48	4.89
596.817	4.91
597.154	4.91
597.491	4.91
597.828	4.91
598.165	4.91
598.502	4.91
598.839	4.91
599.176	4.9
599.512	4.9
599.849	4.9
600.186	4.9
600.523	4.9
600.859	4.91
601.196	4.92
601.532	4.93
601.869	4.93
602.205	4.93
602.542	4.94
602.878	4.95
603.215	4.96
603.551	4.96
603.887	4.96
604.223	4.97
604.56	4.97
604.896	4.97
605.232	4.97
605.568	4.98
605.904	4.98
606.24	4.99
606.576	4.99
606.912	4.99
607.248	4.99
607.583	4.99
607.919	4.98
608.255	4.97
608.591	4.97
608.926	4.96
609.262	4.96
609.597	4.96
609.933	4.95
610.268	4.95
610.604	4.94
610.939	4.94
611.275	4.94
611.61	4.94
611.945	4.95
612.281	4.96
612.616	4.96
612.951	4.95
613.286	4.96
613.621	4.95
613.956	4.95
614.291	4.96
614.626	4.95
614.961	4.97
615.296	4.98
615.631	4.97
615.966	4.98
616.3	4.98
616.635	4.97
616.97	4.96
617.304	4.96
617.639	4.97
617.973	4.97
618.308	4.96
618.642	4.95
618.977	4.94
619.311	4.94
619.646	4.93
619.98	4.94
620.314	4.94
620.648	4.96
620.983	4.97
621.317	4.96
621.651	4.97
621.985	4.97
622.319	4.96
622.653	4.95
622.987	4.97
623.321	4.97
623.655	4.98
623.988	5
624.322	4.99
624.656	4.99
624.99	4.99
625.323	4.99
625.657	5
625.99	5.01
626.324	5.02
626.657	5.02
626.991	5.03
627.324	5.01
627.658	5.01
627.991	5.01
628.324	5.02
628.657	5.01
628.991	5.01
629.324	5.02
629.657	5.04
629.99	5.03
630.323	5.03
630.656	5.03
630.989	5.02
631.322	5.04
631.655	5.04
631.987	5.04
632.32	5.05
632.653	5.05
632.986	5.05
633.318	5.04
633.651	5.05
633.984	5.06
634.316	5.08
634.649	5.07
634.981	5.07
635.313	5.06
635.646	5.07
635.978	5.07
636.31	5.07
636.643	5.06
636.975	5.07
637.307	5.08
637.639	5.08
637.971	5.08
638.303	5.07
638.635	5.07
638.967	5.06
639.299	5.06
639.631	5.05
639.963	5.05
640.295	5.06
640.626	5.07
640.958	5.07
641.29	5.06
641.621	5.06
641.953	5.09
642.285	5.11
642.616	5.11
642.948	5.13
643.279	5.12
643.61	5.11
643.942	5.1
644.273	5.1
644.604	5.09
644.936	5.09
645.267	5.11
645.598	5.12
645.929	5.11
646.26	5.11
646.591	5.12
646.922	5.11
647.253	5.11
647.584	5.09
647.915	5.08
648.245	5.09
648.576	5.1
648.907	5.08
649.238	5.07
649.568	5.05
649.899	5.02
650.229	5.02
650.56	5.04
650.89	5.04
651.221	5.05
651.551	5.07
651.882	5.07
652.212	5.06
652.542	5.04
652.872	5.05
653.203	5.06
653.533	5.07
653.863	5.07
654.193	5.06
654.523	5.06
654.853	5.06
655.183	5.05
655.513	5.05
655.843	5.07
656.172	5.08
656.502	5.1
656.832	5.12
657.162	5.11
657.491	5.11
657.821	5.1
658.15	5.09
658.48	5.1
658.809	5.1
659.139	5.11
659.468	5.13
659.798	5.14
660.127	5.14
660.456	5.14
660.785	5.14
661.115	5.17
661.444	5.18
661.773	5.2
662.102	5.21
662.431	5.2
662.76	5.19
663.089	5.18
663.418	5.18
663.747	5.18
664.076	5.19
664.404	5.2
664.733	5.21
665.062	5.22
665.39	5.21
665.719	5.21
666.048	5.24
666.376	5.23
666.705	5.21
667.033	5.22
667.362	5.2
667.69	5.22
668.018	5.2
668.347	5.21
668.675	5.18
669.003	5.18
669.331	5.2
669.659	5.19
669.987	5.19
670.315	5.19
670.643	5.19
670.971	5.2
671.299	5.19
671.627	5.19
671.955	5.18
672.283	5.16
672.61	5.16
672.938	5.13
673.266	5.13
673.593	5.15
673.921	5.16
674.249	5.15
674.576	5.16
674.904	5.16
675.231	5.15
675.558	5.16
675.886	5.18
676.213	5.16
676.54	5.18
676.867	5.18
677.195	5.21
677.522	5.24
677.849	5.25
678.176	5.29
678.503	5.3
678.83	5.32
679.157	5.35
679.484	5.34
679.81	5.33
680.137	5.33
680.464	5.32
680.791	5.32
681.117	5.34
681.444	5.33
681.771	5.34
