Data from UWBM59333_Reflection_00009.txt Node
Date: Sun May 02 13:48:33 EDT 2021
User: vgr7
Spectrometer: USB2G7710
Scans to average: 10
Trigger mode: 4
Integration Time (sec): 1.000000E-1
Electric dark correction enabled: true
Boxcar width: 20
XAxis mode: Wavelengths
Number of Pixels in Spectrum: 2048
>>>>>Begin Spectral Data<<<<<
177.721	84.42
178.105	51.54
178.488	55.91
178.871	60.42
179.254	52.19
179.636	42.62
180.019	44.63
180.402	38.24
180.785	27.99
181.168	27.26
181.55	29.8
181.933	37.4
182.316	33.75
182.698	32.05
183.081	30.64
183.463	29.12
183.846	32.21
184.228	30.38
184.611	27.71
184.993	25.72
185.376	25.53
185.758	25.37
186.14	28.81
186.522	28.65
186.904	27.4
187.287	25.5
187.669	25.47
188.051	25.21
188.433	25.62
188.815	24.64
189.197	26.88
189.579	26.72
189.961	23.73
190.342	22.02
190.724	21.48
191.106	21.27
191.488	21.62
191.869	21.03
192.251	19.3
192.633	19.8
193.014	20.45
193.396	16.76
193.777	18.65
194.159	18.65
194.54	18.23
194.922	17.95
195.303	16.93
195.684	14.88
196.065	14.66
196.447	17.69
196.828	17.71
197.209	16.09
197.59	11.95
197.971	10.85
198.352	10.3
198.733	11.18
199.114	11.39
199.495	11.86
199.876	11.1
200.257	11.33
200.638	11.47
201.018	12.3
201.399	12.73
201.78	12.64
202.16	12.39
202.541	12.83
202.922	13.05
203.302	14.33
203.683	15.39
204.063	15.18
204.444	14.98
204.824	14.19
205.204	12.17
205.585	14.07
205.965	17.36
206.345	15.64
206.725	16.62
207.106	15.52
207.486	15.25
207.866	16.82
208.246	16.61
208.626	14.51
209.006	15.81
209.386	15.16
209.766	15.09
210.145	15.3
210.525	15.05
210.905	16.41
211.285	16.96
211.664	17.16
212.044	16.5
212.424	16.26
212.803	16.62
213.183	17.81
213.562	19.84
213.942	20.59
214.321	19.12
214.701	19.03
215.08	17.35
215.459	17.51
215.838	16.25
216.218	15.96
216.597	15.48
216.976	16.64
217.355	15.37
217.734	15.69
218.113	14.93
218.492	14.62
218.871	14.72
219.25	13.93
219.629	13.55
220.008	13.28
220.387	11.66
220.766	12.66
221.144	12.12
221.523	10.61
221.902	11.52
222.28	10.61
222.659	11.03
223.037	10.69
223.416	10.54
223.794	10
224.173	10.31
224.551	9.76
224.929	10.88
225.308	10.59
225.686	10.51
226.064	10.37
226.442	10.67
226.821	10.86
227.199	10.62
227.577	10.11
227.955	9.8
228.333	9.87
228.711	9.21
229.089	8.68
229.467	8.42
229.845	8.55
230.222	8.59
230.6	8.51
230.978	8.16
231.356	8.64
231.733	8.44
232.111	8.06
232.488	7.82
232.866	7.74
233.243	7.66
233.621	7.64
233.998	7.58
234.376	7.27
234.753	6.89
235.13	6.77
235.508	6.82
235.885	6.76
236.262	6.59
236.639	6.39
237.016	6.37
237.393	6.26
237.77	6.2
238.147	6.08
238.524	6.08
238.901	5.87
239.278	5.94
239.655	5.89
240.032	5.81
240.409	5.7
240.785	5.76
241.162	5.7
241.539	5.66
241.915	5.63
242.292	5.61
242.668	5.62
243.045	5.59
243.421	5.59
243.798	5.56
244.174	5.62
244.551	5.64
244.927	5.64
245.303	5.62
245.679	5.62
246.056	5.55
246.432	5.58
246.808	5.52
247.184	5.52
247.56	5.54
247.936	5.52
248.312	5.5
248.688	5.47
249.064	5.46
249.44	5.45
249.815	5.44
250.191	5.41
250.567	5.43
250.943	5.37
251.318	5.36
251.694	5.36
252.069	5.34
252.445	5.32
252.82	5.3
253.196	5.28
253.571	5.24
253.947	5.21
254.322	5.21
254.697	5.17
255.073	5.16
255.448	5.17
255.823	5.13
256.198	5.09
256.573	5.08
256.948	5.09
257.323	5.06
257.698	5.03
258.073	4.99
258.448	4.98
258.823	4.97
259.198	4.94
259.573	4.91
259.948	4.88
260.322	4.87
260.697	4.86
261.072	4.83
261.446	4.84
261.821	4.82
262.195	4.81
262.57	4.79
262.944	4.8
263.319	4.81
263.693	4.81
264.067	4.8
264.442	4.78
264.816	4.77
265.19	4.75
265.564	4.77
265.938	4.74
266.313	4.75
266.687	4.75
267.061	4.75
267.435	4.75
267.809	4.74
268.183	4.73
268.556	4.73
268.93	4.75
269.304	4.76
269.678	4.77
270.051	4.75
270.425	4.73
270.799	4.71
271.172	4.74
271.546	4.74
271.919	4.75
272.293	4.72
272.666	4.73
273.04	4.75
273.413	4.77
273.787	4.79
274.16	4.78
274.533	4.8
274.906	4.82
275.279	4.82
275.653	4.82
276.026	4.84
276.399	4.84
276.772	4.86
277.145	4.85
277.518	4.87
277.891	4.89
278.263	4.87
278.636	4.87
279.009	4.86
279.382	4.87
279.755	4.89
280.127	4.9
280.5	4.92
280.872	4.93
281.245	4.95
281.617	4.95
281.99	4.95
282.362	4.96
282.735	4.99
283.107	5
283.479	5.01
283.852	5.03
284.224	5.04
284.596	5.04
284.968	5.04
285.34	5.09
285.713	5.12
286.085	5.14
286.457	5.16
286.829	5.17
287.201	5.17
287.572	5.19
287.944	5.21
288.316	5.22
288.688	5.24
289.06	5.27
289.431	5.3
289.803	5.34
290.175	5.38
290.546	5.41
290.918	5.45
291.289	5.48
291.661	5.52
292.032	5.55
292.403	5.59
292.775	5.64
293.146	5.68
293.517	5.74
293.889	5.79
294.26	5.85
294.631	5.9
295.002	5.94
295.373	5.99
295.744	6.05
296.115	6.1
296.486	6.17
296.857	6.24
297.228	6.29
297.599	6.35
297.97	6.39
298.34	6.44
298.711	6.51
299.082	6.57
299.452	6.62
299.823	6.69
300.194	6.76
300.564	6.82
300.935	6.88
301.305	6.94
301.676	7
302.046	7.07
302.416	7.15
302.787	7.22
303.157	7.29
303.527	7.37
303.897	7.47
304.267	7.56
304.637	7.65
305.008	7.74
305.378	7.82
305.748	7.91
306.117	8.01
306.487	8.12
306.857	8.2
307.227	8.3
307.597	8.4
307.967	8.49
308.336	8.57
308.706	8.66
309.076	8.73
309.445	8.81
309.815	8.87
310.184	8.95
310.554	9.02
310.923	9.09
311.293	9.18
311.662	9.25
312.031	9.31
312.401	9.41
312.77	9.48
313.139	9.57
313.508	9.66
313.877	9.75
314.246	9.82
314.616	9.9
314.985	9.98
315.353	10.04
315.722	10.13
316.091	10.2
316.46	10.29
316.829	10.39
317.198	10.48
317.567	10.57
317.935	10.67
318.304	10.77
318.672	10.85
319.041	10.95
319.41	11.03
319.778	11.13
320.147	11.22
320.515	11.3
320.883	11.4
321.252	11.47
321.62	11.54
321.988	11.63
322.357	11.71
322.725	11.79
323.093	11.85
323.461	11.91
323.829	11.98
324.197	12.04
324.565	12.11
324.933	12.19
325.301	12.26
325.669	12.34
326.037	12.4
326.405	12.47
326.772	12.54
327.14	12.6
327.508	12.64
327.875	12.7
328.243	12.75
328.61	12.78
328.978	12.82
329.346	12.87
329.713	12.94
330.08	12.99
330.448	13.02
330.815	13.06
331.182	13.1
331.55	13.13
331.917	13.16
332.284	13.2
332.651	13.25
333.018	13.31
333.385	13.37
333.752	13.43
334.119	13.48
334.486	13.53
334.853	13.58
335.22	13.63
335.587	13.68
335.954	13.74
336.32	13.79
336.687	13.83
337.054	13.88
337.42	13.92
337.787	13.96
338.153	14.01
338.52	14.04
338.886	14.07
339.253	14.11
339.619	14.15
339.986	14.18
340.352	14.22
340.718	14.26
341.084	14.29
341.451	14.33
341.817	14.36
342.183	14.38
342.549	14.4
342.915	14.44
343.281	14.49
343.647	14.54
344.013	14.56
344.379	14.59
344.745	14.62
345.11	14.66
345.476	14.71
345.842	14.74
346.208	14.78
346.573	14.82
346.939	14.85
347.304	14.88
347.67	14.9
348.035	14.92
348.401	14.94
348.766	14.95
349.132	14.97
349.497	14.97
349.862	14.99
350.228	15.01
350.593	15.01
350.958	15.02
351.323	15.03
351.688	15.04
352.053	15.04
352.418	15.05
352.783	15.05
353.148	15.05
353.513	15.05
353.878	15.04
354.243	15.03
354.608	15.02
354.972	15.01
355.337	15.01
355.702	15
356.066	14.99
356.431	14.96
356.795	14.94
357.16	14.92
357.524	14.92
357.889	14.91
358.253	14.88
358.618	14.85
358.982	14.83
359.346	14.81
359.71	14.78
360.075	14.76
360.439	14.72
360.803	14.69
361.167	14.65
361.531	14.62
361.895	14.59
362.259	14.55
362.623	14.51
362.987	14.47
363.351	14.42
363.714	14.39
364.078	14.34
364.442	14.3
364.806	14.25
365.169	14.21
365.533	14.15
365.896	14.09
366.26	14.04
366.623	13.98
366.987	13.92
367.35	13.86
367.714	13.79
368.077	13.72
368.44	13.65
368.803	13.59
369.167	13.52
369.53	13.44
369.893	13.34
370.256	13.25
370.619	13.16
370.982	13.07
371.345	12.98
371.708	12.89
372.071	12.81
372.434	12.71
372.797	12.62
373.159	12.53
373.522	12.45
373.885	12.36
374.247	12.27
374.61	12.19
374.973	12.1
375.335	12
375.698	11.9
376.06	11.81
376.423	11.72
376.785	11.63
377.147	11.53
377.51	11.45
377.872	11.35
378.234	11.27
378.596	11.18
378.958	11.09
379.321	11
379.683	10.92
380.045	10.82
380.407	10.74
380.769	10.66
381.13	10.58
381.492	10.5
381.854	10.42
382.216	10.34
382.578	10.26
382.939	10.19
383.301	10.11
383.663	10.03
384.024	9.95
384.386	9.88
384.747	9.82
385.109	9.75
385.47	9.67
385.832	9.59
386.193	9.52
386.554	9.45
386.916	9.38
387.277	9.31
387.638	9.25
387.999	9.18
388.36	9.12
388.721	9.06
389.082	8.99
389.443	8.93
389.804	8.86
390.165	8.8
390.526	8.75
390.887	8.69
391.248	8.63
391.609	8.57
391.969	8.52
392.33	8.46
392.691	8.41
393.051	8.35
393.412	8.29
393.772	8.23
394.133	8.17
394.493	8.1
394.854	8.04
395.214	7.98
395.574	7.92
395.935	7.85
396.295	7.8
396.655	7.74
397.015	7.68
397.376	7.62
397.736	7.56
398.096	7.51
398.456	7.45
398.816	7.4
399.176	7.34
399.535	7.29
399.895	7.23
400.255	7.18
400.615	7.13
400.975	7.08
401.334	7.03
401.694	6.97
402.054	6.93
402.413	6.87
402.773	6.82
403.132	6.78
403.492	6.74
403.851	6.7
404.211	6.66
404.57	6.63
404.929	6.59
405.288	6.56
405.648	6.53
406.007	6.5
406.366	6.47
406.725	6.45
407.084	6.42
407.443	6.39
407.802	6.36
408.161	6.33
408.52	6.31
408.879	6.29
409.238	6.27
409.596	6.25
409.955	6.23
410.314	6.2
410.673	6.18
411.031	6.16
411.39	6.14
411.748	6.12
412.107	6.1
412.465	6.09
412.824	6.1
413.182	6.1
413.54	6.11
413.899	6.12
414.257	6.14
414.615	6.17
414.974	6.19
415.332	6.22
415.69	6.25
416.048	6.26
416.406	6.3
416.764	6.32
417.122	6.34
417.48	6.36
417.838	6.38
418.195	6.39
418.553	6.39
418.911	6.39
419.269	6.38
419.626	6.36
419.984	6.33
420.342	6.29
420.699	6.25
421.057	6.21
421.414	6.16
421.772	6.13
422.129	6.1
422.486	6.07
422.844	6.06
423.201	6.04
423.558	6.02
423.915	6
424.273	5.98
424.63	5.97
424.987	5.95
425.344	5.93
425.701	5.91
426.058	5.9
426.415	5.88
426.772	5.86
427.128	5.84
427.485	5.8
427.842	5.77
428.199	5.73
428.555	5.7
428.912	5.66
429.269	5.6
429.625	5.56
429.982	5.51
430.338	5.46
430.695	5.42
431.051	5.37
431.407	5.34
431.764	5.3
432.12	5.27
432.476	5.25
432.832	5.23
433.189	5.23
433.545	5.23
433.901	5.24
434.257	5.27
434.613	5.3
434.969	5.33
435.325	5.36
435.681	5.41
436.036	5.44
436.392	5.46
436.748	5.49
437.104	5.5
437.459	5.52
437.815	5.54
438.171	5.57
438.526	5.6
438.882	5.64
439.237	5.68
439.593	5.73
439.948	5.76
440.304	5.8
440.659	5.83
441.014	5.86
441.369	5.89
441.725	5.91
442.08	5.93
442.435	5.94
442.79	5.95
443.145	5.95
443.5	5.94
443.855	5.94
444.21	5.93
444.565	5.92
444.92	5.91
445.275	5.89
445.629	5.87
445.984	5.85
446.339	5.82
446.693	5.8
447.048	5.77
447.403	5.74
447.757	5.7
448.112	5.66
448.466	5.62
448.82	5.58
449.175	5.54
449.529	5.51
449.883	5.47
450.238	5.43
450.592	5.41
450.946	5.39
451.3	5.37
451.654	5.38
452.008	5.37
452.362	5.36
452.716	5.35
453.07	5.35
453.424	5.33
453.778	5.31
454.132	5.29
454.486	5.27
454.839	5.24
455.193	5.21
455.547	5.19
455.9	5.15
456.254	5.13
456.607	5.09
456.961	5.05
457.314	5.03
457.668	5.01
458.021	5.01
458.375	5
458.728	5.01
459.081	5.01
459.434	5.02
459.787	5.04
460.141	5.05
460.494	5.07
460.847	5.08
461.2	5.1
461.553	5.11
461.906	5.13
462.259	5.15
462.611	5.16
462.964	5.17
463.317	5.19
463.67	5.21
464.022	5.23
464.375	5.25
464.728	5.27
465.08	5.28
465.433	5.3
465.785	5.32
466.138	5.31
466.49	5.31
466.843	5.3
467.195	5.29
467.547	5.28
467.899	5.27
468.252	5.25
468.604	5.24
468.956	5.24
469.308	5.23
469.66	5.25
470.012	5.26
470.364	5.28
470.716	5.3
471.068	5.33
471.42	5.37
471.772	5.41
472.123	5.44
472.475	5.46
472.827	5.49
473.178	5.51
473.53	5.53
473.882	5.56
474.233	5.6
474.585	5.65
474.936	5.74
475.288	5.86
475.639	6.01
475.99	6.18
476.342	6.37
476.693	6.57
477.044	6.78
477.395	7
477.746	7.21
478.097	7.43
478.448	7.65
478.8	7.86
479.15	8.06
479.501	8.24
479.852	8.4
480.203	8.55
480.554	8.7
480.905	8.83
481.255	8.96
481.606	9.09
481.957	9.21
482.307	9.32
482.658	9.42
483.009	9.52
483.359	9.62
483.709	9.71
484.06	9.8
484.41	9.89
484.761	9.97
485.111	10.05
485.461	10.13
485.811	10.21
486.162	10.27
486.512	10.33
486.862	10.38
487.212	10.41
487.562	10.43
487.912	10.44
488.262	10.44
488.612	10.44
488.961	10.42
489.311	10.36
489.661	10.28
490.011	10.18
490.36	10.05
490.71	9.91
491.06	9.75
491.409	9.58
491.759	9.41
492.108	9.23
492.458	9.05
492.807	8.85
493.157	8.67
493.506	8.49
493.855	8.34
494.204	8.19
494.554	8.05
494.903	7.93
495.252	7.81
495.601	7.71
495.95	7.61
496.299	7.52
496.648	7.44
496.997	7.38
497.346	7.32
497.695	7.27
498.043	7.22
498.392	7.19
498.741	7.16
499.09	7.14
499.438	7.13
499.787	7.13
500.135	7.14
500.484	7.16
500.832	7.2
501.181	7.27
501.529	7.35
501.878	7.46
502.226	7.57
502.574	7.7
502.923	7.84
503.271	7.99
503.619	8.14
503.967	8.29
504.315	8.45
504.663	8.61
505.011	8.78
505.359	8.95
505.707	9.13
506.055	9.31
506.403	9.5
506.751	9.7
507.098	9.9
507.446	10.11
507.794	10.33
508.141	10.55
508.489	10.79
508.837	11.04
509.184	11.29
509.531	11.55
509.879	11.82
510.226	12.12
510.574	12.43
510.921	12.76
511.268	13.09
511.616	13.43
511.963	13.78
512.31	14.13
512.657	14.48
513.004	14.83
513.351	15.17
513.698	15.5
514.045	15.8
514.392	16.09
514.739	16.37
515.086	16.64
515.432	16.91
515.779	17.18
516.126	17.45
516.473	17.74
516.819	18.05
517.166	18.39
517.512	18.75
517.859	19.14
518.205	19.55
518.552	20
518.898	20.47
519.245	21.01
519.591	21.65
519.937	22.39
520.283	23.24
520.629	24.16
520.976	25.12
521.322	26.11
521.668	27.14
522.014	28.17
522.36	29.19
522.706	30.21
523.052	31.19
523.398	32.11
523.743	32.97
524.089	33.75
524.435	34.47
524.781	35.18
525.126	35.87
525.472	36.54
525.817	37.2
526.163	37.85
526.509	38.47
526.854	39.09
527.199	39.7
527.545	40.32
527.89	40.95
528.235	41.57
528.581	42.16
528.926	42.71
529.271	43.24
529.616	43.74
529.961	44.22
530.306	44.68
530.651	45.09
530.996	45.47
531.341	45.81
531.686	46.12
532.031	46.4
532.376	46.72
532.721	47.05
533.065	47.42
533.41	47.8
533.755	48.12
534.099	48.39
534.444	48.59
534.788	48.74
535.133	48.88
535.477	48.97
535.822	49.03
536.166	49.02
536.51	48.95
536.855	48.8
537.199	48.6
537.543	48.41
537.887	48.27
538.231	48.17
538.576	48.07
538.92	47.96
539.264	47.84
539.608	47.69
539.951	47.51
540.295	47.32
540.639	47.12
540.983	46.88
541.327	46.63
541.671	46.35
542.014	46.12
542.358	45.91
542.701	45.79
543.045	45.78
543.389	45.8
543.732	45.86
544.075	45.93
544.419	46.02
544.762	46.13
545.105	46.25
545.449	46.39
545.792	46.54
546.135	46.68
546.478	46.77
546.821	46.8
547.165	46.74
547.508	46.61
547.851	46.42
548.194	46.18
548.536	45.88
548.879	45.53
549.222	45.15
549.565	44.76
549.908	44.37
550.25	44.02
550.593	43.74
550.936	43.55
551.278	43.44
551.621	43.37
551.963	43.33
552.306	43.32
552.648	43.36
552.991	43.42
553.333	43.51
553.675	43.64
554.017	43.8
554.36	43.99
554.702	44.23
555.044	44.52
555.386	44.87
555.728	45.26
556.07	45.57
556.412	45.9
556.754	46.15
557.096	46.33
557.438	46.51
557.78	46.69
558.121	46.87
558.463	47.04
558.805	47.22
559.147	47.41
559.488	47.59
559.83	47.76
560.171	47.94
560.513	48.1
560.854	48.26
561.196	48.42
561.537	48.58
561.878	48.73
562.22	48.87
562.561	49.02
562.902	49.17
563.243	49.31
563.584	49.46
563.925	49.61
564.266	49.75
564.607	49.88
564.948	50.03
565.289	50.16
565.63	50.3
565.971	50.43
566.312	50.56
566.653	50.69
566.993	50.81
567.334	50.91
567.675	51.03
568.015	51.16
568.356	51.27
568.696	51.39
569.037	51.49
569.377	51.58
569.718	51.67
570.058	51.77
570.398	51.87
570.739	51.96
571.079	52.05
571.419	52.14
571.759	52.2
572.099	52.28
572.439	52.36
572.779	52.42
573.119	52.49
573.459	52.56
573.799	52.63
574.139	52.69
574.479	52.75
574.819	52.82
575.158	52.88
575.498	52.94
575.838	53.01
576.177	53.06
576.517	53.12
576.856	53.17
577.196	53.23
577.535	53.29
577.875	53.33
578.214	53.38
578.553	53.45
578.893	53.49
579.232	53.55
579.571	53.6
579.91	53.65
580.25	53.7
580.589	53.76
580.928	53.81
581.267	53.88
581.606	53.94
581.945	53.98
582.283	54.02
582.622	54.07
582.961	54.12
583.3	54.18
583.639	54.23
583.977	54.28
584.316	54.33
584.654	54.38
584.993	54.44
585.332	54.5
585.67	54.56
586.008	54.61
586.347	54.66
586.685	54.73
587.024	54.77
587.362	54.84
587.7	54.89
588.038	54.96
588.376	55.04
588.715	55.09
589.053	55.16
589.391	55.22
589.729	55.28
590.067	55.35
590.404	55.41
590.742	55.47
591.08	55.53
591.418	55.59
591.756	55.64
592.093	55.7
592.431	55.74
592.769	55.79
593.106	55.83
593.444	55.86
593.781	55.89
594.119	55.93
594.456	55.97
594.793	56.01
595.131	56.05
595.468	56.07
595.805	56.11
596.143	56.17
596.48	56.21
596.817	56.28
597.154	56.33
597.491	56.38
597.828	56.44
598.165	56.49
598.502	56.53
598.839	56.57
599.176	56.61
599.512	56.66
599.849	56.7
600.186	56.73
600.523	56.75
600.859	56.78
601.196	56.81
601.532	56.83
601.869	56.85
602.205	56.87
602.542	56.9
602.878	56.93
603.215	56.95
603.551	56.98
603.887	57.01
604.223	57.04
604.56	57.08
604.896	57.11
605.232	57.12
605.568	57.14
605.904	57.16
606.24	57.19
606.576	57.21
606.912	57.23
607.248	57.24
607.583	57.27
607.919	57.29
608.255	57.31
608.591	57.32
608.926	57.34
609.262	57.37
609.597	57.37
609.933	57.39
610.268	57.41
610.604	57.4
610.939	57.4
611.275	57.41
611.61	57.4
611.945	57.41
612.281	57.42
612.616	57.42
612.951	57.41
613.286	57.41
613.621	57.43
613.956	57.44
614.291	57.45
614.626	57.46
614.961	57.48
615.296	57.49
615.631	57.51
615.966	57.52
616.3	57.54
616.635	57.55
616.97	57.56
617.304	57.56
617.639	57.58
617.973	57.58
618.308	57.58
618.642	57.59
618.977	57.62
619.311	57.63
619.646	57.65
619.98	57.65
620.314	57.67
620.648	57.7
620.983	57.73
621.317	57.76
621.651	57.78
621.985	57.79
622.319	57.82
622.653	57.85
622.987	57.87
623.321	57.9
623.655	57.91
623.988	57.91
624.322	57.93
624.656	57.94
624.99	57.96
625.323	57.97
625.657	57.99
625.99	57.99
626.324	58.02
626.657	58.02
626.991	58.04
627.324	58.05
627.658	58.07
627.991	58.09
628.324	58.1
628.657	58.11
628.991	58.13
629.324	58.15
629.657	58.16
629.99	58.17
630.323	58.17
630.656	58.18
630.989	58.19
631.322	58.19
631.655	58.21
631.987	58.23
632.32	58.23
632.653	58.24
632.986	58.27
633.318	58.27
633.651	58.28
633.984	58.29
634.316	58.29
634.649	58.3
634.981	58.29
635.313	58.29
635.646	58.31
635.978	58.32
636.31	58.31
636.643	58.32
636.975	58.32
637.307	58.32
637.639	58.33
637.971	58.35
638.303	58.37
638.635	58.37
638.967	58.4
639.299	58.39
639.631	58.42
639.963	58.42
640.295	58.44
640.626	58.45
640.958	58.47
641.29	58.48
641.621	58.51
641.953	58.53
642.285	58.53
642.616	58.56
642.948	58.56
643.279	58.57
643.61	58.58
643.942	58.59
644.273	58.6
644.604	58.62
644.936	58.65
645.267	58.66
645.598	58.68
645.929	58.71
646.26	58.73
646.591	58.73
646.922	58.75
647.253	58.77
647.584	58.79
647.915	58.82
648.245	58.82
648.576	58.84
648.907	58.86
649.238	58.87
649.568	58.88
649.899	58.9
650.229	58.92
650.56	58.94
650.89	58.95
651.221	58.95
651.551	58.95
651.882	58.94
652.212	58.96
652.542	58.95
652.872	58.97
653.203	58.96
653.533	58.98
653.863	58.99
654.193	59.01
654.523	59.02
654.853	59.04
655.183	59.03
655.513	59.04
655.843	59.06
656.172	59.06
656.502	59.07
656.832	59.09
657.162	59.1
657.491	59.12
657.821	59.15
658.15	59.17
658.48	59.17
658.809	59.19
659.139	59.19
659.468	59.19
659.798	59.19
660.127	59.2
660.456	59.22
660.785	59.22
661.115	59.24
661.444	59.23
661.773	59.26
662.102	59.27
662.431	59.27
662.76	59.28
663.089	59.29
663.418	59.31
663.747	59.32
664.076	59.34
664.404	59.38
