Data from UWBM55942_Reflection_00015.txt Node
Date: Sun May 02 14:12:23 EDT 2021
User: vgr7
Spectrometer: USB2G7710
Scans to average: 10
Trigger mode: 4
Integration Time (sec): 1.000000E-1
Electric dark correction enabled: true
Boxcar width: 20
XAxis mode: Wavelengths
Number of Pixels in Spectrum: 2048
>>>>>Begin Spectral Data<<<<<
177.721	-430
178.105	35.52
178.488	116.87
178.871	235.29
179.254	-71.28
179.636	-54.86
180.019	-12
180.402	-20.95
180.785	-17.96
181.168	-11.13
181.55	-11.54
181.933	0.1
182.316	-9.92
182.698	-10.04
183.081	-15.85
183.463	-19.4
183.846	-21.85
184.228	-22.25
184.611	-23.67
184.993	-23.51
185.376	-23.99
185.758	-21.75
186.14	-17.62
186.522	-18.21
186.904	-17
187.287	-17.22
187.669	-13.56
188.051	-15.1
188.433	-15.07
188.815	-18.13
189.197	-16.89
189.579	-15.14
189.961	-14
190.342	-16.34
190.724	-13.21
191.106	-14.42
191.488	-14.58
191.869	-16.92
192.251	-20.39
192.633	-20.21
193.014	-19.3
193.396	-23.41
193.777	-19.41
194.159	-18.74
194.54	-18.63
194.922	-20.9
195.303	-21.92
195.684	-23.74
196.065	-23.92
196.447	-22.7
196.828	-23.43
197.209	-24.52
197.59	-28.73
197.971	-28.28
198.352	-27.79
198.733	-25.51
199.114	-24.97
199.495	-22.56
199.876	-22.09
200.257	-21.89
200.638	-22.6
201.018	-20.46
201.399	-18.09
201.78	-17.75
202.16	-18.75
202.541	-18.32
202.922	-19.5
203.302	-20.36
203.683	-18.47
204.063	-18.35
204.444	-16.47
204.824	-15.61
205.204	-18.07
205.585	-17.14
205.965	-14.39
206.345	-15.96
206.725	-15.33
207.106	-15.42
207.486	-13.57
207.866	-12.48
208.246	-12.98
208.626	-12.88
209.006	-11.1
209.386	-13.43
209.766	-13.71
210.145	-14.63
210.525	-13.99
210.905	-11.04
211.285	-12.06
211.664	-12.16
212.044	-12.59
212.424	-12.62
212.803	-12.41
213.183	-11.36
213.562	-10.04
213.942	-9.64
214.321	-11.55
214.701	-11.84
215.08	-12.57
215.459	-11.8
215.838	-12.36
216.218	-12.16
216.597	-12.77
216.976	-12.12
217.355	-13.33
217.734	-11.13
218.113	-11.13
218.492	-11.88
218.871	-11.94
219.25	-10.97
219.629	-10.01
220.008	-10.17
220.387	-11.72
220.766	-8.4
221.144	-9
221.523	-8.38
221.902	-6.59
222.28	-6.33
222.659	-5.04
223.037	-4.21
223.416	-2.86
223.794	-1.45
224.173	-1.38
224.551	-1.53
224.929	0.01
225.308	0.31
225.686	1.07
226.064	1.94
226.442	1.41
226.821	2.22
227.199	2.66
227.577	3.04
227.955	3.55
228.333	3.93
228.711	3.58
229.089	3.44
229.467	3.24
229.845	3.91
230.222	4.21
230.6	4.17
230.978	4.3
231.356	4.74
231.733	4.58
232.111	4.43
232.488	4.04
232.866	4.01
233.243	3.54
233.621	3.68
233.998	3.73
234.376	3.75
234.753	3.47
235.13	3.45
235.508	3.52
235.885	3.6
236.262	3.44
236.639	3.57
237.016	3.45
237.393	3.4
237.77	3.4
238.147	3.44
238.524	3.38
238.901	3.32
239.278	3.33
239.655	3.46
240.032	3.61
240.409	3.62
240.785	3.67
241.162	3.68
241.539	3.68
241.915	3.81
242.292	3.83
242.668	3.85
243.045	3.83
243.421	3.8
243.798	3.79
244.174	3.86
244.551	3.86
244.927	3.91
245.303	3.88
245.679	3.86
246.056	3.82
246.432	3.81
246.808	3.76
247.184	3.8
247.56	3.82
247.936	3.85
248.312	3.84
248.688	3.86
249.064	3.86
249.44	3.86
249.815	3.87
250.191	3.86
250.567	3.87
250.943	3.88
251.318	3.89
251.694	3.92
252.069	3.91
252.445	3.93
252.82	3.94
253.196	3.93
253.571	3.91
253.947	3.92
254.322	3.94
254.697	3.95
255.073	3.92
255.448	3.91
255.823	3.88
256.198	3.86
256.573	3.84
256.948	3.85
257.323	3.81
257.698	3.79
258.073	3.77
258.448	3.76
258.823	3.75
259.198	3.74
259.573	3.72
259.948	3.72
260.322	3.7
260.697	3.7
261.072	3.7
261.446	3.71
261.821	3.7
262.195	3.7
262.57	3.68
262.944	3.69
263.319	3.71
263.693	3.71
264.067	3.72
264.442	3.71
264.816	3.71
265.19	3.73
265.564	3.74
265.938	3.72
266.313	3.72
266.687	3.71
267.061	3.68
267.435	3.69
267.809	3.69
268.183	3.69
268.556	3.7
268.93	3.7
269.304	3.7
269.678	3.68
270.051	3.66
270.425	3.64
270.799	3.63
271.172	3.64
271.546	3.65
271.919	3.65
272.293	3.64
272.666	3.62
273.04	3.64
273.413	3.66
273.787	3.66
274.16	3.66
274.533	3.69
274.906	3.69
275.279	3.7
275.653	3.72
276.026	3.73
276.399	3.73
276.772	3.75
277.145	3.75
277.518	3.76
277.891	3.78
278.263	3.76
278.636	3.76
279.009	3.78
279.382	3.79
279.755	3.8
280.127	3.8
280.5	3.79
280.872	3.8
281.245	3.81
281.617	3.8
281.99	3.81
282.362	3.82
282.735	3.82
283.107	3.83
283.479	3.83
283.852	3.84
284.224	3.84
284.596	3.83
284.968	3.85
285.34	3.87
285.713	3.9
286.085	3.93
286.457	3.95
286.829	3.96
287.201	3.98
287.572	3.98
287.944	4.03
288.316	4.02
288.688	4.03
289.06	4.06
289.431	4.08
289.803	4.1
290.175	4.13
290.546	4.15
290.918	4.16
291.289	4.18
291.661	4.19
292.032	4.21
292.403	4.23
292.775	4.27
293.146	4.29
293.517	4.33
293.889	4.35
294.26	4.38
294.631	4.41
295.002	4.46
295.373	4.48
295.744	4.53
296.115	4.55
296.486	4.6
296.857	4.64
297.228	4.67
297.599	4.71
297.97	4.75
298.34	4.77
298.711	4.82
299.082	4.86
299.452	4.91
299.823	4.96
300.194	5
300.564	5.03
300.935	5.07
301.305	5.1
301.676	5.13
302.046	5.17
302.416	5.22
302.787	5.27
303.157	5.31
303.527	5.36
303.897	5.42
304.267	5.48
304.637	5.55
305.008	5.6
305.378	5.66
305.748	5.72
306.117	5.78
306.487	5.85
306.857	5.92
307.227	5.97
307.597	6.04
307.967	6.09
308.336	6.14
308.706	6.19
309.076	6.24
309.445	6.29
309.815	6.34
310.184	6.38
310.554	6.42
310.923	6.49
311.293	6.54
311.662	6.58
312.031	6.62
312.401	6.7
312.77	6.75
313.139	6.79
313.508	6.85
313.877	6.9
314.246	6.94
314.616	6.99
314.985	7.04
315.353	7.11
315.722	7.16
316.091	7.22
316.46	7.27
316.829	7.33
317.198	7.39
317.567	7.46
317.935	7.51
318.304	7.58
318.672	7.66
319.041	7.74
319.41	7.79
319.778	7.86
320.147	7.91
320.515	7.96
320.883	8.01
321.252	8.05
321.62	8.11
321.988	8.17
322.357	8.23
322.725	8.29
323.093	8.33
323.461	8.38
323.829	8.44
324.197	8.48
324.565	8.53
324.933	8.59
325.301	8.61
325.669	8.67
326.037	8.7
326.405	8.74
326.772	8.78
327.14	8.83
327.508	8.85
327.875	8.9
328.243	8.95
328.61	8.97
328.978	9.01
329.346	9.05
329.713	9.09
330.08	9.12
330.448	9.15
330.815	9.19
331.182	9.22
331.55	9.27
331.917	9.31
332.284	9.35
332.651	9.38
333.018	9.43
333.385	9.47
333.752	9.51
334.119	9.55
334.486	9.58
334.853	9.62
335.22	9.67
335.587	9.72
335.954	9.76
336.32	9.8
336.687	9.83
337.054	9.87
337.42	9.9
337.787	9.95
338.153	10.01
338.52	10.04
338.886	10.05
339.253	10.09
339.619	10.14
339.986	10.18
340.352	10.24
340.718	10.27
341.084	10.31
341.451	10.35
341.817	10.4
342.183	10.44
342.549	10.47
342.915	10.5
343.281	10.52
343.647	10.55
344.013	10.58
344.379	10.61
344.745	10.64
345.11	10.67
345.476	10.71
345.842	10.74
346.208	10.76
346.573	10.78
346.939	10.8
347.304	10.84
347.67	10.85
348.035	10.86
348.401	10.87
348.766	10.9
349.132	10.92
349.497	10.95
349.862	10.97
350.228	10.98
350.593	10.99
350.958	11
351.323	11.02
351.688	11.04
352.053	11.04
352.418	11.05
352.783	11.05
353.148	11.04
353.513	11.05
353.878	11.06
354.243	11.05
354.608	11.04
354.972	11.04
355.337	11.03
355.702	11.03
356.066	11.02
356.431	11.01
356.795	10.99
357.16	10.97
357.524	10.96
357.889	10.94
358.253	10.93
358.618	10.92
358.982	10.9
359.346	10.88
359.71	10.86
360.075	10.83
360.439	10.8
360.803	10.78
361.167	10.76
361.531	10.74
361.895	10.72
362.259	10.68
362.623	10.65
362.987	10.64
363.351	10.6
363.714	10.57
364.078	10.53
364.442	10.5
364.806	10.46
365.169	10.43
365.533	10.39
365.896	10.35
366.26	10.31
366.623	10.27
366.987	10.22
367.35	10.17
367.714	10.13
368.077	10.08
368.44	10.02
368.803	9.97
369.167	9.91
369.53	9.85
369.893	9.77
370.256	9.7
370.619	9.63
370.982	9.56
371.345	9.49
371.708	9.43
372.071	9.36
372.434	9.31
372.797	9.24
373.159	9.19
373.522	9.12
373.885	9.06
374.247	9
374.61	8.93
374.973	8.86
375.335	8.8
375.698	8.73
376.06	8.66
376.423	8.59
376.785	8.53
377.147	8.46
377.51	8.4
377.872	8.33
378.234	8.26
378.596	8.2
378.958	8.13
379.321	8.06
379.683	8
380.045	7.94
380.407	7.88
380.769	7.81
381.13	7.75
381.492	7.7
381.854	7.64
382.216	7.59
382.578	7.53
382.939	7.47
383.301	7.42
383.663	7.36
384.024	7.31
384.386	7.26
384.747	7.21
385.109	7.15
385.47	7.1
385.832	7.04
386.193	6.99
386.554	6.94
386.916	6.89
387.277	6.83
387.638	6.78
387.999	6.73
388.36	6.69
388.721	6.64
389.082	6.6
389.443	6.55
389.804	6.51
390.165	6.46
390.526	6.42
390.887	6.38
391.248	6.34
391.609	6.3
391.969	6.26
392.33	6.22
392.691	6.17
393.051	6.13
393.412	6.09
393.772	6.04
394.133	6
394.493	5.96
394.854	5.91
395.214	5.86
395.574	5.83
395.935	5.79
396.295	5.74
396.655	5.7
397.015	5.66
397.376	5.62
397.736	5.58
398.096	5.54
398.456	5.5
398.816	5.47
399.176	5.42
399.535	5.39
399.895	5.35
400.255	5.31
400.615	5.28
400.975	5.24
401.334	5.21
401.694	5.17
402.054	5.14
402.413	5.1
402.773	5.07
403.132	5.05
403.492	5.02
403.851	4.99
404.211	4.97
404.57	4.95
404.929	4.92
405.288	4.9
405.648	4.87
406.007	4.85
406.366	4.83
406.725	4.81
407.084	4.79
407.443	4.77
407.802	4.75
408.161	4.74
408.52	4.73
408.879	4.71
409.238	4.69
409.596	4.68
409.955	4.67
410.314	4.65
410.673	4.63
411.031	4.62
411.39	4.61
411.748	4.59
412.107	4.58
412.465	4.57
412.824	4.58
413.182	4.58
413.54	4.59
413.899	4.6
414.257	4.62
414.615	4.65
414.974	4.67
415.332	4.69
415.69	4.72
416.048	4.73
416.406	4.76
416.764	4.78
417.122	4.79
417.48	4.81
417.838	4.83
418.195	4.84
418.553	4.85
418.911	4.85
419.269	4.85
419.626	4.83
419.984	4.81
420.342	4.79
420.699	4.77
421.057	4.74
421.414	4.71
421.772	4.68
422.129	4.66
422.486	4.65
422.844	4.64
423.201	4.62
423.558	4.61
423.915	4.6
424.273	4.59
424.63	4.58
424.987	4.57
425.344	4.56
425.701	4.55
426.058	4.54
426.415	4.53
426.772	4.52
427.128	4.5
427.485	4.48
427.842	4.46
428.199	4.43
428.555	4.41
428.912	4.38
429.269	4.34
429.625	4.31
429.982	4.27
430.338	4.24
430.695	4.21
431.051	4.17
431.407	4.14
431.764	4.12
432.12	4.1
432.476	4.08
432.832	4.06
433.189	4.06
433.545	4.06
433.901	4.07
434.257	4.09
434.613	4.11
434.969	4.13
435.325	4.16
435.681	4.2
436.036	4.22
436.392	4.24
436.748	4.25
437.104	4.26
437.459	4.28
437.815	4.3
438.171	4.32
438.526	4.34
438.882	4.37
439.237	4.41
439.593	4.44
439.948	4.47
440.304	4.5
440.659	4.52
441.014	4.54
441.369	4.56
441.725	4.58
442.08	4.59
442.435	4.6
442.79	4.61
443.145	4.61
443.5	4.6
443.855	4.6
444.21	4.6
444.565	4.59
444.92	4.58
445.275	4.57
445.629	4.56
445.984	4.54
446.339	4.52
446.693	4.51
447.048	4.49
447.403	4.47
447.757	4.44
448.112	4.41
448.466	4.38
448.82	4.35
449.175	4.32
449.529	4.3
449.883	4.27
450.238	4.24
450.592	4.23
450.946	4.21
451.3	4.2
451.654	4.21
452.008	4.2
452.362	4.2
452.716	4.2
453.07	4.19
453.424	4.18
453.778	4.17
454.132	4.16
454.486	4.14
454.839	4.12
455.193	4.1
455.547	4.09
455.9	4.06
456.254	4.04
456.607	4.01
456.961	3.98
457.314	3.97
457.668	3.96
458.021	3.95
458.375	3.95
458.728	3.95
459.081	3.95
459.434	3.96
459.787	3.97
460.141	3.98
460.494	3.99
460.847	4
461.2	4.01
461.553	4.02
461.906	4.03
462.259	4.04
462.611	4.04
462.964	4.06
463.317	4.07
463.67	4.08
464.022	4.1
464.375	4.11
464.728	4.12
465.08	4.13
465.433	4.14
465.785	4.14
466.138	4.13
466.49	4.13
466.843	4.12
467.195	4.1
467.547	4.09
467.899	4.08
468.252	4.06
468.604	4.04
468.956	4.03
469.308	4.02
469.66	4.03
470.012	4.03
470.364	4.04
470.716	4.05
471.068	4.07
471.42	4.1
471.772	4.12
472.123	4.14
472.475	4.15
472.827	4.17
473.178	4.18
473.53	4.19
473.882	4.21
474.233	4.24
474.585	4.27
474.936	4.34
475.288	4.43
475.639	4.54
475.99	4.67
476.342	4.82
476.693	4.97
477.044	5.14
477.395	5.3
477.746	5.47
478.097	5.64
478.448	5.81
478.8	5.97
479.15	6.13
479.501	6.27
479.852	6.4
480.203	6.53
480.554	6.65
480.905	6.75
481.255	6.86
481.606	6.96
481.957	7.05
482.307	7.14
482.658	7.23
483.009	7.31
483.359	7.4
483.709	7.48
484.06	7.55
484.41	7.62
484.761	7.69
485.111	7.76
485.461	7.83
485.811	7.89
486.162	7.95
486.512	8
486.862	8.04
487.212	8.07
487.562	8.09
487.912	8.1
488.262	8.11
488.612	8.11
488.961	8.09
489.311	8.05
489.661	7.99
490.011	7.91
490.36	7.81
490.71	7.7
491.06	7.57
491.409	7.44
491.759	7.31
492.108	7.16
492.458	7.02
492.807	6.87
493.157	6.72
493.506	6.58
493.855	6.45
494.204	6.33
494.554	6.21
494.903	6.1
495.252	6.01
495.601	5.91
495.95	5.83
496.299	5.75
496.648	5.68
496.997	5.62
497.346	5.56
497.695	5.5
498.043	5.45
498.392	5.41
498.741	5.37
499.09	5.33
499.438	5.3
499.787	5.28
500.135	5.27
500.484	5.26
500.832	5.26
501.181	5.28
501.529	5.32
501.878	5.37
502.226	5.42
502.574	5.49
502.923	5.56
503.271	5.63
503.619	5.71
503.967	5.8
504.315	5.87
504.663	5.96
505.011	6.04
505.359	6.13
505.707	6.22
506.055	6.31
506.403	6.41
506.751	6.51
507.098	6.62
507.446	6.72
507.794	6.83
508.141	6.95
508.489	7.07
508.837	7.2
509.184	7.33
509.531	7.46
509.879	7.61
510.226	7.76
510.574	7.91
510.921	8.08
511.268	8.25
511.616	8.42
511.963	8.6
512.31	8.78
512.657	8.96
513.004	9.14
513.351	9.31
513.698	9.48
514.045	9.63
514.392	9.77
514.739	9.91
515.086	10.04
515.432	10.17
515.779	10.3
516.126	10.44
516.473	10.58
516.819	10.73
517.166	10.9
517.512	11.09
517.859	11.29
518.205	11.51
518.552	11.74
518.898	11.99
519.245	12.28
519.591	12.63
519.937	13.04
520.283	13.52
520.629	14.05
520.976	14.6
521.322	15.17
521.668	15.77
522.014	16.37
522.36	16.97
522.706	17.56
523.052	18.14
523.398	18.68
523.743	19.18
524.089	19.64
524.435	20.07
524.781	20.5
525.126	20.91
525.472	21.32
525.817	21.73
526.163	22.13
526.509	22.51
526.854	22.9
527.199	23.28
527.545	23.66
527.89	24.06
528.235	24.45
528.581	24.83
528.926	25.19
529.271	25.53
529.616	25.87
529.961	26.19
530.306	26.5
530.651	26.79
530.996	27.06
531.341	27.3
531.686	27.54
532.031	27.76
532.376	28.01
532.721	28.27
533.065	28.57
533.41	28.88
533.755	29.17
534.099	29.44
534.444	29.66
534.788	29.87
535.133	30.07
535.477	30.24
535.822	30.38
536.166	30.5
536.51	30.57
536.855	30.59
537.199	30.58
537.543	30.57
537.887	30.59
538.231	30.64
538.576	30.7
538.92	30.74
539.264	30.77
539.608	30.78
539.951	30.77
540.295	30.76
540.639	30.74
540.983	30.7
541.327	30.64
541.671	30.57
542.014	30.51
542.358	30.48
542.701	30.51
543.045	30.61
543.389	30.72
543.732	30.86
544.075	31.02
544.419	31.19
544.762	31.37
545.105	31.57
545.449	31.78
545.792	31.99
546.135	32.2
546.478	32.37
546.821	32.51
547.165	32.59
547.508	32.62
547.851	32.61
548.194	32.56
548.536	32.48
548.879	32.37
549.222	32.23
549.565	32.1
549.908	31.96
550.25	31.86
550.593	31.79
550.936	31.8
551.278	31.85
551.621	31.93
551.963	32.05
552.306	32.18
552.648	32.34
552.991	32.53
553.333	32.73
553.675	32.97
554.017	33.24
554.36	33.53
554.702	33.86
555.044	34.22
555.386	34.62
555.728	35.07
556.07	35.47
556.412	35.88
556.754	36.21
557.096	36.48
557.438	36.76
557.78	37.03
558.121	37.31
558.463	37.59
558.805	37.88
559.147	38.15
559.488	38.42
559.83	38.71
560.171	38.98
560.513	39.26
560.854	39.53
561.196	39.79
561.537	40.04
561.878	40.29
562.22	40.52
562.561	40.76
562.902	41
563.243	41.23
563.584	41.47
563.925	41.71
564.266	41.94
564.607	42.17
564.948	42.39
565.289	42.61
565.63	42.84
565.971	43.06
566.312	43.27
566.653	43.48
566.993	43.68
567.334	43.88
567.675	44.08
568.015	44.27
568.356	44.45
568.696	44.63
569.037	44.82
569.377	45
569.718	45.16
570.058	45.32
570.398	45.47
570.739	45.62
571.079	45.77
571.419	45.91
571.759	46.05
572.099	46.18
572.439	46.32
572.779	46.43
573.119	46.56
573.459	46.69
573.799	46.8
574.139	46.92
574.479	47.05
574.819	47.17
575.158	47.29
575.498	47.4
575.838	47.52
576.177	47.63
576.517	47.75
576.856	47.85
577.196	47.96
577.535	48.06
577.875	48.16
578.214	48.27
578.553	48.37
578.893	48.48
579.232	48.58
579.571	48.67
579.91	48.77
580.25	48.86
580.589	48.96
580.928	49.05
581.267	49.15
581.606	49.24
581.945	49.35
582.283	49.44
582.622	49.54
582.961	49.63
583.3	49.71
583.639	49.81
583.977	49.9
584.316	50
584.654	50.1
584.993	50.19
585.332	50.27
585.67	50.36
586.008	50.46
586.347	50.56
586.685	50.66
587.024	50.76
587.362	50.85
587.7	50.94
588.038	51.03
588.376	51.12
588.715	51.21
589.053	51.3
589.391	51.4
589.729	51.5
590.067	51.59
590.404	51.67
590.742	51.75
591.08	51.84
591.418	51.91
591.756	51.99
592.093	52.07
592.431	52.14
592.769	52.2
593.106	52.27
593.444	52.33
593.781	52.39
594.119	52.45
594.456	52.52
594.793	52.59
595.131	52.65
595.468	52.71
595.805	52.78
596.143	52.84
596.48	52.9
596.817	52.97
597.154	53.04
597.491	53.1
597.828	53.17
598.165	53.23
598.502	53.3
598.839	53.37
599.176	53.45
599.512	53.49
599.849	53.54
600.186	53.59
600.523	53.63
600.859	53.68
601.196	53.73
601.532	53.77
601.869	53.81
602.205	53.85
602.542	53.9
602.878	53.95
603.215	54
603.551	54.04
603.887	54.07
604.223	54.11
604.56	54.15
604.896	54.18
605.232	54.21
605.568	54.25
605.904	54.27
606.24	54.29
606.576	54.32
606.912	54.35
607.248	54.38
607.583	54.41
607.919	54.45
608.255	54.47
608.591	54.5
608.926	54.53
609.262	54.55
609.597	54.57
609.933	54.6
610.268	54.63
610.604	54.65
610.939	54.67
611.275	54.68
611.61	54.71
611.945	54.74
612.281	54.75
612.616	54.76
612.951	54.77
613.286	54.78
613.621	54.8
613.956	54.81
614.291	54.85
614.626	54.87
614.961	54.89
615.296	54.91
615.631	54.94
615.966	54.97
616.3	54.99
616.635	55
616.97	54.99
617.304	55.02
617.639	55.05
617.973	55.06
618.308	55.09
618.642	55.12
618.977	55.16
619.311	55.2
619.646	55.24
619.98	55.28
620.314	55.32
620.648	55.35
620.983	55.37
621.317	55.39
621.651	55.4
621.985	55.43
622.319	55.45
622.653	55.46
622.987	55.5
623.321	55.52
623.655	55.54
623.988	55.56
624.322	55.58
624.656	55.61
624.99	55.63
625.323	55.64
625.657	55.67
625.99	55.67
626.324	55.69
626.657	55.71
626.991	55.74
627.324	55.76
627.658	55.78
627.991	55.8
628.324	55.82
628.657	55.84
628.991	55.87
629.324	55.88
629.657	55.9
629.99	55.9
630.323	55.91
630.656	55.95
630.989	55.97
631.322	55.99
631.655	56.01
631.987	56.02
632.32	56.04
632.653	56.04
632.986	56.04
633.318	56.05
633.651	56.09
633.984	56.09
634.316	56.12
634.649	56.13
634.981	56.15
635.313	56.17
635.646	56.18
635.978	56.2
636.31	56.22
636.643	56.23
636.975	56.24
637.307	56.25
637.639	56.26
637.971	56.29
638.303	56.3
638.635	56.33
638.967	56.34
639.299	56.35
639.631	56.38
639.963	56.4
640.295	56.43
640.626	56.44
640.958	56.47
641.29	56.48
641.621	56.49
641.953	56.51
642.285	56.51
642.616	56.51
642.948	56.54
643.279	56.55
643.61	56.58
643.942	56.6
644.273	56.62
644.604	56.62
644.936	56.65
645.267	56.67
645.598	56.68
645.929	56.69
646.26	56.73
646.591	56.74
646.922	56.76
647.253	56.77
647.584	56.79
647.915	56.8
648.245	56.81
648.576	56.84
648.907	56.86
649.238	56.89
649.568	56.89
649.899	56.93
650.229	56.96
650.56	56.98
650.89	57
651.221	57.01
651.551	57.01
651.882	57.03
652.212	57.04
652.542	57.06
652.872	57.08
653.203	57.11
653.533	57.13
653.863	57.15
654.193	57.17
654.523	57.18
654.853	57.19
655.183	57.21
655.513	57.22
655.843	57.25
656.172	57.27
656.502	57.29
656.832	57.31
657.162	57.32
657.491	57.34
657.821	57.36
658.15	57.38
658.48	57.39
658.809	57.41
659.139	57.45
659.468	57.45
659.798	57.46
660.127	57.47
660.456	57.5
660.785	57.52
661.115	57.53
661.444	57.55
661.773	57.56
662.102	57.57
662.431	57.57
662.76	57.58
663.089	57.6
663.418	57.6
663.747	57.62
664.076	57.65
664.404	57.67
664.733	57.69
665.062	57.71
665.39	57.72
665.719	57.74
666.048	57.78
666.376	57.79
