Data from UWBM59058_Reflection_00006.txt Node
Date: Sun May 02 12:58:20 EDT 2021
User: vgr7
Spectrometer: USB2G7710
Scans to average: 10
Trigger mode: 4
Integration Time (sec): 1.000000E-1
Electric dark correction enabled: true
Boxcar width: 20
XAxis mode: Wavelengths
Number of Pixels in Spectrum: 2048
>>>>>Begin Spectral Data<<<<<
177.721	101.01
178.105	100.53
178.488	100.23
178.871	101.09
179.254	101.17
179.636	98.44
180.019	95.68
180.402	93.16
180.785	89.41
181.168	86.85
181.55	84.18
181.933	115.08
182.316	117.27
182.698	118.95
183.081	119.68
183.463	120.72
183.846	121.83
184.228	122.51
184.611	124.6
184.993	127.36
185.376	131.61
185.758	-128.01
186.14	-66.83
186.522	-27.08
186.904	-10.62
187.287	1.35
187.669	5.99
188.051	8.26
188.433	12.45
188.815	7.31
189.197	6.1
189.579	5.39
189.961	6.31
190.342	2.8
190.724	4.71
191.106	4.03
191.488	7.28
191.869	2.13
192.251	3.33
192.633	0.44
193.014	-1.14
193.396	-2.86
193.777	5.2
194.159	5.5
194.54	2.22
194.922	2.26
195.303	3.3
195.684	5.27
196.065	6.89
196.447	5.81
196.828	4.98
197.209	6.28
197.59	-3.52
197.971	-3.64
198.352	-1.56
198.733	0.84
199.114	0.32
199.495	-1.57
199.876	-2.17
200.257	-1.56
200.638	-3.06
201.018	-8.81
201.399	-9.41
201.78	-10.56
202.16	-12.57
202.541	-12.21
202.922	-13.56
203.302	-17.03
203.683	-17.31
204.063	-18.11
204.444	-15.28
204.824	-12.33
205.204	-7.84
205.585	1.2
205.965	1.37
206.345	3.05
206.725	-0.84
207.106	-1.56
207.486	-2.46
207.866	-0.11
208.246	-0.85
208.626	2.68
209.006	9.35
209.386	3.83
209.766	3.96
210.145	3.94
210.525	2.83
210.905	5.75
211.285	6.69
211.664	4.27
212.044	6.52
212.424	6.69
212.803	1.64
213.183	3.3
213.562	3.38
213.942	2.7
214.321	-0.14
214.701	-1.39
215.08	1.24
215.459	0.85
215.838	-1.12
216.218	-1.79
216.597	-2.93
216.976	-5.8
217.355	-4.37
217.734	-2.37
218.113	-1.41
218.492	0.13
218.871	1.62
219.25	2.57
219.629	1.32
220.008	1.01
220.387	2.04
220.766	1.65
221.144	1.15
221.523	2.53
221.902	3.08
222.28	4.59
222.659	6.16
223.037	6.56
223.416	6.21
223.794	7.44
224.173	6.37
224.551	6.29
224.929	7.03
225.308	7.75
225.686	8.4
226.064	8.56
226.442	8.06
226.821	7.93
227.199	7.37
227.577	6.72
227.955	6.22
228.333	6.2
228.711	6.48
229.089	7.04
229.467	6.58
229.845	7.31
230.222	7.31
230.6	7.62
230.978	7.7
231.356	7.29
231.733	7.66
232.111	7.62
232.488	7.39
232.866	7.33
233.243	7.02
233.621	7.12
233.998	6.75
234.376	6.92
234.753	6.98
235.13	7
235.508	7.6
235.885	7.47
236.262	7.42
236.639	7.49
237.016	7.41
237.393	7.29
237.77	6.99
238.147	6.88
238.524	6.83
238.901	6.91
239.278	6.86
239.655	6.84
240.032	6.68
240.409	6.64
240.785	6.54
241.162	6.53
241.539	6.54
241.915	6.58
242.292	6.55
242.668	6.56
243.045	6.52
243.421	6.45
243.798	6.4
244.174	6.38
244.551	6.31
244.927	6.1
245.303	6.04
245.679	6.08
246.056	6.02
246.432	5.99
246.808	5.78
247.184	5.74
247.56	5.72
247.936	5.73
248.312	5.69
248.688	5.73
249.064	5.71
249.44	5.71
249.815	5.67
250.191	5.6
250.567	5.6
250.943	5.65
251.318	5.67
251.694	5.59
252.069	5.52
252.445	5.5
252.82	5.59
253.196	5.61
253.571	5.54
253.947	5.63
254.322	5.55
254.697	5.68
255.073	5.66
255.448	5.66
255.823	5.63
256.198	5.59
256.573	5.4
256.948	5.35
257.323	5.35
257.698	5.28
258.073	5.24
258.448	5.09
258.823	5.05
259.198	5.03
259.573	5.04
259.948	5.06
260.322	5.04
260.697	5.04
261.072	5.02
261.446	5
261.821	4.98
262.195	4.95
262.57	4.93
262.944	4.92
263.319	4.89
263.693	4.92
264.067	4.93
264.442	5.03
264.816	5
265.19	4.98
265.564	5.03
265.938	4.99
266.313	5.05
266.687	4.99
267.061	5
267.435	5
267.809	4.99
268.183	4.96
268.556	4.96
268.93	4.95
269.304	4.95
269.678	4.91
270.051	4.89
270.425	4.88
270.799	4.9
271.172	4.9
271.546	4.9
271.919	4.92
272.293	4.91
272.666	4.88
273.04	4.88
273.413	4.84
273.787	4.84
274.16	4.86
274.533	4.9
274.906	4.88
275.279	4.89
275.653	4.89
276.026	4.88
276.399	4.83
276.772	4.82
277.145	4.84
277.518	4.84
277.891	4.86
278.263	4.87
278.636	4.88
279.009	4.9
279.382	4.85
279.755	4.79
280.127	4.8
280.5	4.8
280.872	4.78
281.245	4.89
281.617	4.89
281.99	4.91
282.362	4.93
282.735	4.9
283.107	4.9
283.479	4.92
283.852	4.92
284.224	4.95
284.596	4.91
284.968	4.8
285.34	4.79
285.713	4.77
286.085	4.68
286.457	4.68
286.829	4.65
287.201	4.64
287.572	4.69
287.944	4.69
288.316	4.73
288.688	4.76
289.06	4.74
289.431	4.73
289.803	4.73
290.175	4.73
290.546	4.74
290.918	4.72
291.289	4.68
291.661	4.69
292.032	4.64
292.403	4.66
292.775	4.74
293.146	4.74
293.517	4.76
293.889	4.81
294.26	4.79
294.631	4.81
295.002	4.84
295.373	4.85
295.744	4.85
296.115	4.83
296.486	4.76
296.857	4.75
297.228	4.74
297.599	4.72
297.97	4.71
298.34	4.71
298.711	4.63
299.082	4.63
299.452	4.65
299.823	4.67
300.194	4.68
300.564	4.66
300.935	4.65
301.305	4.62
301.676	4.59
302.046	4.58
302.416	4.58
302.787	4.56
303.157	4.5
303.527	4.5
303.897	4.48
304.267	4.48
304.637	4.49
305.008	4.49
305.378	4.48
305.748	4.46
306.117	4.53
306.487	4.58
306.857	4.63
307.227	4.62
307.597	4.6
307.967	4.6
308.336	4.59
308.706	4.59
309.076	4.58
309.445	4.57
309.815	4.44
310.184	4.43
310.554	4.37
310.923	4.39
311.293	4.42
311.662	4.43
312.031	4.41
312.401	4.4
312.77	4.36
313.139	4.34
313.508	4.37
313.877	4.31
314.246	4.3
314.616	4.25
314.985	4.19
315.353	4.19
315.722	4.19
316.091	4.19
316.46	4.18
316.829	4.2
317.198	4.22
317.567	4.35
317.935	4.35
318.304	4.38
318.672	4.39
319.041	4.4
319.41	4.41
319.778	4.41
320.147	4.42
320.515	4.42
320.883	4.39
321.252	4.32
321.62	4.35
321.988	4.34
322.357	4.35
322.725	4.41
323.093	4.41
323.461	4.4
323.829	4.42
324.197	4.41
324.565	4.39
324.933	4.4
325.301	4.39
325.669	4.39
326.037	4.4
326.405	4.33
326.772	4.32
327.14	4.3
327.508	4.29
327.875	4.28
328.243	4.29
328.61	4.24
328.978	4.26
329.346	4.25
329.713	4.24
330.08	4.24
330.448	4.23
330.815	4.2
331.182	4.21
331.55	4.2
331.917	4.21
332.284	4.2
332.651	4.21
333.018	4.2
333.385	4.21
333.752	4.22
334.119	4.21
334.486	4.23
334.853	4.21
335.22	4.21
335.587	4.19
335.954	4.2
336.32	4.22
336.687	4.21
337.054	4.22
337.42	4.23
337.787	4.23
338.153	4.24
338.52	4.28
338.886	4.31
339.253	4.29
339.619	4.29
339.986	4.26
340.352	4.26
340.718	4.26
341.084	4.25
341.451	4.24
341.817	4.22
342.183	4.19
342.549	4.22
342.915	4.23
343.281	4.24
343.647	4.25
344.013	4.27
344.379	4.28
344.745	4.27
345.11	4.27
345.476	4.28
345.842	4.29
346.208	4.27
346.573	4.26
346.939	4.28
347.304	4.28
347.67	4.28
348.035	4.29
348.401	4.27
348.766	4.29
349.132	4.29
349.497	4.29
349.862	4.29
350.228	4.31
350.593	4.3
350.958	4.3
351.323	4.28
351.688	4.28
352.053	4.26
352.418	4.26
352.783	4.26
353.148	4.24
353.513	4.21
353.878	4.21
354.243	4.22
354.608	4.22
354.972	4.22
355.337	4.22
355.702	4.19
356.066	4.21
356.431	4.2
356.795	4.2
357.16	4.19
357.524	4.19
357.889	4.18
358.253	4.19
358.618	4.19
358.982	4.2
359.346	4.21
359.71	4.21
360.075	4.21
360.439	4.21
360.803	4.2
361.167	4.19
361.531	4.2
361.895	4.2
362.259	4.19
362.623	4.19
362.987	4.18
363.351	4.19
363.714	4.19
364.078	4.19
364.442	4.2
364.806	4.21
365.169	4.2
365.533	4.2
365.896	4.19
366.26	4.19
366.623	4.19
366.987	4.18
367.35	4.18
367.714	4.18
368.077	4.19
368.44	4.19
368.803	4.2
369.167	4.19
369.53	4.19
369.893	4.21
370.256	4.2
370.619	4.22
370.982	4.21
371.345	4.21
371.708	4.21
372.071	4.21
372.434	4.21
372.797	4.22
373.159	4.23
373.522	4.22
373.885	4.21
374.247	4.2
374.61	4.19
374.973	4.19
375.335	4.18
375.698	4.18
376.06	4.18
376.423	4.18
376.785	4.18
377.147	4.18
377.51	4.18
377.872	4.18
378.234	4.18
378.596	4.2
378.958	4.2
379.321	4.2
379.683	4.2
380.045	4.2
380.407	4.19
380.769	4.18
381.13	4.19
381.492	4.2
381.854	4.21
382.216	4.21
382.578	4.21
382.939	4.22
383.301	4.21
383.663	4.21
384.024	4.21
384.386	4.21
384.747	4.2
385.109	4.19
385.47	4.19
385.832	4.19
386.193	4.18
386.554	4.18
386.916	4.18
387.277	4.18
387.638	4.19
387.999	4.19
388.36	4.2
388.721	4.2
389.082	4.2
389.443	4.2
389.804	4.2
390.165	4.21
390.526	4.2
390.887	4.2
391.248	4.2
391.609	4.2
391.969	4.2
392.33	4.21
392.691	4.21
393.051	4.2
393.412	4.19
393.772	4.2
394.133	4.2
394.493	4.19
394.854	4.19
395.214	4.19
395.574	4.19
395.935	4.18
396.295	4.18
396.655	4.18
397.015	4.18
397.376	4.16
397.736	4.17
398.096	4.16
398.456	4.17
398.816	4.18
399.176	4.17
399.535	4.18
399.895	4.18
400.255	4.19
400.615	4.19
400.975	4.19
401.334	4.19
401.694	4.19
402.054	4.19
402.413	4.18
402.773	4.18
403.132	4.18
403.492	4.18
403.851	4.19
404.211	4.19
404.57	4.2
404.929	4.21
405.288	4.21
405.648	4.21
406.007	4.22
406.366	4.22
406.725	4.23
407.084	4.23
407.443	4.23
407.802	4.23
408.161	4.22
408.52	4.22
408.879	4.23
409.238	4.23
409.596	4.23
409.955	4.25
410.314	4.25
410.673	4.25
411.031	4.25
411.39	4.26
411.748	4.27
412.107	4.28
412.465	4.3
412.824	4.33
413.182	4.35
413.54	4.37
413.899	4.39
414.257	4.43
414.615	4.47
414.974	4.5
415.332	4.55
415.69	4.6
416.048	4.63
416.406	4.67
416.764	4.71
417.122	4.75
417.48	4.78
417.838	4.82
418.195	4.85
418.553	4.87
418.911	4.89
419.269	4.89
419.626	4.89
419.984	4.88
420.342	4.87
420.699	4.85
421.057	4.83
421.414	4.82
421.772	4.81
422.129	4.8
422.486	4.8
422.844	4.8
423.201	4.79
423.558	4.8
423.915	4.79
424.273	4.79
424.63	4.79
424.987	4.8
425.344	4.8
425.701	4.8
426.058	4.81
426.415	4.81
426.772	4.8
427.128	4.8
427.485	4.79
427.842	4.78
428.199	4.77
428.555	4.76
428.912	4.74
429.269	4.71
429.625	4.7
429.982	4.67
430.338	4.64
430.695	4.62
431.051	4.58
431.407	4.56
431.764	4.54
432.12	4.51
432.476	4.51
432.832	4.5
433.189	4.5
433.545	4.51
433.901	4.53
434.257	4.55
434.613	4.58
434.969	4.61
435.325	4.64
435.681	4.69
436.036	4.7
436.392	4.72
436.748	4.73
437.104	4.74
437.459	4.76
437.815	4.78
438.171	4.8
438.526	4.83
438.882	4.86
439.237	4.9
439.593	4.94
439.948	4.97
440.304	5.01
440.659	5.04
441.014	5.05
441.369	5.08
441.725	5.1
442.08	5.12
442.435	5.13
442.79	5.14
443.145	5.14
443.5	5.15
443.855	5.15
444.21	5.15
444.565	5.14
444.92	5.13
445.275	5.13
445.629	5.12
445.984	5.11
446.339	5.11
446.693	5.11
447.048	5.09
447.403	5.07
447.757	5.05
448.112	5.03
448.466	5
448.82	4.98
449.175	4.96
449.529	4.94
449.883	4.93
450.238	4.9
450.592	4.9
450.946	4.9
451.3	4.9
451.654	4.91
452.008	4.92
452.362	4.92
452.716	4.92
453.07	4.93
453.424	4.92
453.778	4.92
454.132	4.9
454.486	4.89
454.839	4.88
455.193	4.85
455.547	4.84
455.9	4.8
456.254	4.78
456.607	4.75
456.961	4.72
457.314	4.7
457.668	4.69
458.021	4.69
458.375	4.68
458.728	4.68
459.081	4.68
459.434	4.69
459.787	4.7
460.141	4.71
460.494	4.71
460.847	4.71
461.2	4.71
461.553	4.72
461.906	4.72
462.259	4.73
462.611	4.73
462.964	4.74
463.317	4.75
463.67	4.75
464.022	4.75
464.375	4.75
464.728	4.75
465.08	4.74
465.433	4.75
465.785	4.74
466.138	4.72
466.49	4.7
466.843	4.68
467.195	4.66
467.547	4.63
467.899	4.61
468.252	4.57
468.604	4.54
468.956	4.52
469.308	4.5
469.66	4.5
470.012	4.49
470.364	4.49
470.716	4.49
471.068	4.51
471.42	4.53
471.772	4.55
472.123	4.56
472.475	4.57
472.827	4.58
473.178	4.59
473.53	4.6
473.882	4.62
474.233	4.64
474.585	4.68
474.936	4.75
475.288	4.84
475.639	4.97
475.99	5.12
476.342	5.29
476.693	5.47
477.044	5.64
477.395	5.83
477.746	6.02
478.097	6.21
478.448	6.41
478.8	6.6
479.15	6.78
479.501	6.94
479.852	7.08
480.203	7.22
480.554	7.35
480.905	7.48
481.255	7.6
481.606	7.72
481.957	7.82
482.307	7.93
482.658	8.03
483.009	8.13
483.359	8.22
483.709	8.31
484.06	8.4
484.41	8.49
484.761	8.56
485.111	8.64
485.461	8.72
485.811	8.79
486.162	8.85
486.512	8.9
486.862	8.95
487.212	8.98
487.562	9
487.912	9.01
488.262	9.02
488.612	9.01
488.961	8.99
489.311	8.95
489.661	8.87
490.011	8.77
490.36	8.65
490.71	8.51
491.06	8.36
491.409	8.2
491.759	8.03
492.108	7.85
492.458	7.68
492.807	7.49
493.157	7.3
493.506	7.13
493.855	6.96
494.204	6.8
494.554	6.65
494.903	6.51
495.252	6.38
495.601	6.25
495.95	6.12
496.299	6
496.648	5.89
496.997	5.78
497.346	5.68
497.695	5.58
498.043	5.49
498.392	5.4
498.741	5.31
499.09	5.22
499.438	5.13
499.787	5.05
500.135	4.98
500.484	4.91
500.832	4.86
501.181	4.81
501.529	4.78
501.878	4.76
502.226	4.74
502.574	4.73
502.923	4.73
503.271	4.72
503.619	4.72
503.967	4.72
504.315	4.71
504.663	4.7
505.011	4.7
505.359	4.69
505.707	4.68
506.055	4.68
506.403	4.68
506.751	4.68
507.098	4.68
507.446	4.68
507.794	4.69
508.141	4.71
508.489	4.72
508.837	4.74
509.184	4.75
509.531	4.76
509.879	4.77
510.226	4.79
510.574	4.8
510.921	4.82
511.268	4.83
511.616	4.85
511.963	4.87
512.31	4.89
512.657	4.91
513.004	4.92
513.351	4.94
513.698	4.95
514.045	4.95
514.392	4.96
514.739	4.96
515.086	4.96
515.432	4.95
515.779	4.95
516.126	4.95
516.473	4.95
516.819	4.95
517.166	4.96
517.512	4.97
517.859	4.98
518.205	5
518.552	5.02
518.898	5.06
519.245	5.1
519.591	5.16
519.937	5.23
520.283	5.33
520.629	5.44
520.976	5.56
521.322	5.69
521.668	5.82
522.014	5.94
522.36	6.06
522.706	6.18
523.052	6.3
523.398	6.41
523.743	6.51
524.089	6.59
524.435	6.66
524.781	6.73
525.126	6.79
525.472	6.86
525.817	6.91
526.163	6.97
526.509	7.01
526.854	7.06
527.199	7.11
527.545	7.16
527.89	7.21
528.235	7.26
528.581	7.31
528.926	7.35
529.271	7.4
529.616	7.44
529.961	7.47
530.306	7.5
530.651	7.53
530.996	7.55
531.341	7.55
531.686	7.56
532.031	7.55
532.376	7.55
532.721	7.55
533.065	7.56
533.41	7.56
533.755	7.55
534.099	7.51
534.444	7.48
534.788	7.44
535.133	7.39
535.477	7.34
535.822	7.28
536.166	7.22
536.51	7.14
536.855	7.06
537.199	6.97
537.543	6.89
537.887	6.81
538.231	6.74
538.576	6.68
538.92	6.61
539.264	6.55
539.608	6.49
539.951	6.43
540.295	6.36
540.639	6.29
540.983	6.22
541.327	6.17
541.671	6.1
542.014	6.04
542.358	5.98
542.701	5.93
543.045	5.89
543.389	5.87
543.732	5.84
544.075	5.82
544.419	5.81
544.762	5.77
545.105	5.76
545.449	5.75
545.792	5.75
546.135	5.74
546.478	5.72
546.821	5.7
547.165	5.66
547.508	5.62
547.851	5.57
548.194	5.51
548.536	5.45
548.879	5.37
549.222	5.3
549.565	5.22
549.908	5.14
550.25	5.07
550.593	5.01
550.936	4.95
551.278	4.91
551.621	4.88
551.963	4.85
552.306	4.83
552.648	4.81
552.991	4.79
553.333	4.77
553.675	4.76
554.017	4.76
554.36	4.76
554.702	4.77
555.044	4.78
555.386	4.8
555.728	4.81
556.07	4.82
556.412	4.83
556.754	4.84
557.096	4.84
557.438	4.85
557.78	4.84
558.121	4.84
558.463	4.84
558.805	4.84
559.147	4.84
559.488	4.84
559.83	4.85
560.171	4.85
560.513	4.85
560.854	4.84
561.196	4.84
561.537	4.85
561.878	4.85
562.22	4.85
562.561	4.85
562.902	4.86
563.243	4.87
563.584	4.87
563.925	4.87
564.266	4.87
564.607	4.88
564.948	4.88
565.289	4.88
565.63	4.89
565.971	4.89
566.312	4.89
566.653	4.89
566.993	4.89
567.334	4.89
567.675	4.9
568.015	4.91
568.356	4.91
568.696	4.91
569.037	4.91
569.377	4.91
569.718	4.92
570.058	4.92
570.398	4.92
570.739	4.92
571.079	4.92
571.419	4.91
571.759	4.92
572.099	4.92
572.439	4.91
572.779	4.92
573.119	4.92
573.459	4.91
573.799	4.91
574.139	4.92
574.479	4.92
574.819	4.91
575.158	4.91
575.498	4.91
575.838	4.91
576.177	4.91
576.517	4.9
576.856	4.9
577.196	4.9
577.535	4.89
577.875	4.89
578.214	4.89
578.553	4.89
578.893	4.88
579.232	4.88
579.571	4.87
579.91	4.87
580.25	4.87
580.589	4.86
580.928	4.85
581.267	4.85
581.606	4.85
581.945	4.85
582.283	4.84
582.622	4.84
582.961	4.84
583.3	4.84
583.639	4.84
583.977	4.84
584.316	4.84
584.654	4.84
584.993	4.84
585.332	4.83
585.67	4.83
586.008	4.83
586.347	4.83
586.685	4.83
587.024	4.84
587.362	4.83
587.7	4.84
588.038	4.84
588.376	4.84
588.715	4.84
589.053	4.84
589.391	4.85
589.729	4.85
590.067	4.85
590.404	4.85
590.742	4.86
591.08	4.86
591.418	4.86
591.756	4.87
592.093	4.88
592.431	4.89
592.769	4.9
593.106	4.9
593.444	4.9
593.781	4.9
594.119	4.9
594.456	4.9
594.793	4.9
595.131	4.9
595.468	4.9
595.805	4.89
596.143	4.9
596.48	4.9
596.817	4.9
597.154	4.91
597.491	4.91
597.828	4.91
598.165	4.92
598.502	4.92
598.839	4.92
599.176	4.92
599.512	4.92
599.849	4.93
600.186	4.94
600.523	4.93
600.859	4.93
601.196	4.94
601.532	4.95
601.869	4.95
602.205	4.95
602.542	4.95
602.878	4.95
603.215	4.94
603.551	4.94
603.887	4.93
604.223	4.94
604.56	4.94
604.896	4.94
605.232	4.94
605.568	4.94
605.904	4.94
606.24	4.94
606.576	4.94
606.912	4.94
607.248	4.94
607.583	4.94
607.919	4.94
608.255	4.94
608.591	4.94
608.926	4.95
609.262	4.95
609.597	4.95
609.933	4.96
610.268	4.97
610.604	4.98
610.939	4.98
611.275	4.98
611.61	4.98
611.945	4.97
612.281	4.98
612.616	4.97
612.951	4.97
613.286	4.96
613.621	4.95
613.956	4.95
614.291	4.96
614.626	4.96
614.961	4.96
615.296	4.96
615.631	4.96
615.966	4.96
616.3	4.96
616.635	4.96
616.97	4.96
617.304	4.96
617.639	4.97
617.973	4.96
618.308	4.96
618.642	4.96
618.977	4.95
619.311	4.95
619.646	4.96
619.98	4.97
620.314	4.97
620.648	4.98
620.983	4.99
621.317	4.98
621.651	4.99
621.985	4.99
622.319	4.99
622.653	4.99
622.987	4.99
623.321	4.99
623.655	4.99
623.988	4.99
624.322	4.99
624.656	4.99
624.99	4.99
625.323	4.99
625.657	5
625.99	5.01
626.324	5.02
626.657	5.02
626.991	5.02
627.324	5.02
627.658	5.02
627.991	5.02
628.324	5.03
628.657	5.03
628.991	5.05
629.324	5.05
629.657	5.06
629.99	5.06
630.323	5.07
630.656	5.07
630.989	5.07
631.322	5.07
631.655	5.07
631.987	5.07
632.32	5.07
632.653	5.07
632.986	5.08
633.318	5.07
633.651	5.07
633.984	5.07
634.316	5.08
634.649	5.08
634.981	5.09
635.313	5.09
635.646	5.08
635.978	5.08
636.31	5.07
636.643	5.07
636.975	5.07
637.307	5.07
637.639	5.07
637.971	5.08
638.303	5.08
638.635	5.08
638.967	5.09
639.299	5.08
639.631	5.09
639.963	5.1
640.295	5.1
640.626	5.12
640.958	5.12
641.29	5.12
641.621	5.11
641.953	5.12
642.285	5.12
642.616	5.13
642.948	5.11
643.279	5.12
643.61	5.12
643.942	5.12
644.273	5.12
644.604	5.12
644.936	5.12
645.267	5.12
645.598	5.13
645.929	5.13
646.26	5.14
646.591	5.14
646.922	5.14
647.253	5.14
647.584	5.13
647.915	5.14
648.245	5.14
648.576	5.14
648.907	5.14
649.238	5.14
649.568	5.13
649.899	5.14
650.229	5.15
650.56	5.16
650.89	5.17
651.221	5.18
651.551	5.18
651.882	5.19
652.212	5.19
652.542	5.19
652.872	5.19
653.203	5.2
653.533	5.2
653.863	5.2
654.193	5.19
654.523	5.2
654.853	5.2
655.183	5.21
655.513	5.21
655.843	5.22
656.172	5.23
656.502	5.23
656.832	5.22
657.162	5.23
657.491	5.22
657.821	5.22
658.15	5.22
658.48	5.22
658.809	5.22
659.139	5.23
659.468	5.24
659.798	5.24
660.127	5.24
660.456	5.27
660.785	5.27
661.115	5.29
661.444	5.29
661.773	5.31
662.102	5.31
662.431	5.32
662.76	5.33
663.089	5.33
663.418	5.33
663.747	5.33
664.076	5.34
664.404	5.35
664.733	5.35
665.062	5.37
665.39	5.37
665.719	5.37
666.048	5.37
666.376	5.37
666.705	5.36
667.033	5.35
667.362	5.34
667.69	5.35
668.018	5.35
668.347	5.35
668.675	5.33
669.003	5.34
669.331	5.34
669.659	5.34
669.987	5.35
670.315	5.36
670.643	5.37
670.971	5.38
671.299	5.38
671.627	5.38
671.955	5.38
672.283	5.37
672.61	5.39
672.938	5.41
673.266	5.41
673.593	5.41
673.921	5.43
674.249	5.44
674.576	5.44
674.904	5.45
675.231	5.45
675.558	5.47
675.886	5.48
676.213	5.49
676.54	5.49
676.867	5.5
677.195	5.51
677.522	5.52
677.849	5.54
678.176	5.55
678.503	5.56
678.83	5.56
679.157	5.57
679.484	5.56
679.81	5.56
680.137	5.56
680.464	5.57
680.791	5.56
681.117	5.56
681.444	5.54
681.771	5.54
682.097	5.54
