Data from UWBM59056_Reflection_00013.txt Node
Date: Sun May 02 13:45:57 EDT 2021
User: vgr7
Spectrometer: USB2G7710
Scans to average: 10
Trigger mode: 4
Integration Time (sec): 1.000000E-1
Electric dark correction enabled: true
Boxcar width: 20
XAxis mode: Wavelengths
Number of Pixels in Spectrum: 2048
>>>>>Begin Spectral Data<<<<<
177.721	75.17
178.105	58.02
178.488	51.53
178.871	82.31
179.254	63.09
179.636	15.78
180.019	22.18
180.402	17.67
180.785	15.56
181.168	19.73
181.55	19.23
181.933	23.78
182.316	17.03
182.698	14.63
183.081	13.5
183.463	13.15
183.846	12.8
184.228	15.08
184.611	12.5
184.993	10.69
185.376	11.24
185.758	13.09
186.14	16.39
186.522	17
186.904	16.21
187.287	19.19
187.669	18.33
188.051	13.85
188.433	13.37
188.815	8.49
189.197	8.89
189.579	10.61
189.961	10
190.342	9.6
190.724	12.1
191.106	12.31
191.488	11.73
191.869	9.87
192.251	11.64
192.633	13.3
193.014	12.72
193.396	10.6
193.777	11.22
194.159	12.14
194.54	10.73
194.922	10.71
195.303	11.26
195.684	9.16
196.065	8.91
196.447	9.9
196.828	9.71
197.209	8.43
197.59	6.14
197.971	7.09
198.352	7.31
198.733	8.65
199.114	8.97
199.495	8.59
199.876	7.21
200.257	8.23
200.638	6.97
201.018	7.41
201.399	8.35
201.78	9.43
202.16	8.35
202.541	9.12
202.922	6.82
203.302	6.23
203.683	7.98
204.063	8.6
204.444	9.26
204.824	9.82
205.204	8.04
205.585	9.88
205.965	11.05
206.345	9.47
206.725	10.05
207.106	10.26
207.486	9.83
207.866	9.7
208.246	8.67
208.626	6.71
209.006	6.81
209.386	7.94
209.766	8.31
210.145	8.01
210.525	8.58
210.905	10.9
211.285	10.05
211.664	10.59
212.044	9.87
212.424	8.39
212.803	8.38
213.183	8.25
213.562	8.55
213.942	9.08
214.321	8.49
214.701	7.23
215.08	8.35
215.459	9.01
215.838	8.61
216.218	8.79
216.597	9.28
216.976	10.33
217.355	8.41
217.734	9.06
218.113	9.96
218.492	9.7
218.871	9.25
219.25	8.47
219.629	9.23
220.008	9.26
220.387	7.95
220.766	9.14
221.144	6.82
221.523	6.62
221.902	7.1
222.28	6.87
222.659	7.18
223.037	7.9
223.416	7.41
223.794	7.5
224.173	7.73
224.551	7.61
224.929	7.82
225.308	7.67
225.686	8.05
226.064	8.02
226.442	7.61
226.821	8.76
227.199	8.77
227.577	8.19
227.955	8.47
228.333	8.34
228.711	8.36
229.089	7.8
229.467	7.43
229.845	7.05
230.222	7.46
230.6	7.18
230.978	7.07
231.356	7.37
231.733	7.46
232.111	7.02
232.488	6.6
232.866	6.76
233.243	6.35
233.621	6.13
233.998	5.93
234.376	5.92
234.753	5.62
235.13	5.53
235.508	5.48
235.885	5.41
236.262	5.34
236.639	5.38
237.016	5.18
237.393	5.08
237.77	5.02
238.147	4.88
238.524	4.76
238.901	4.7
239.278	4.67
239.655	4.7
240.032	4.62
240.409	4.52
240.785	4.5
241.162	4.45
241.539	4.38
241.915	4.4
242.292	4.38
242.668	4.36
243.045	4.41
243.421	4.39
243.798	4.41
244.174	4.43
244.551	4.46
244.927	4.47
245.303	4.51
245.679	4.46
246.056	4.41
246.432	4.4
246.808	4.34
247.184	4.36
247.56	4.39
247.936	4.35
248.312	4.33
248.688	4.33
249.064	4.3
249.44	4.3
249.815	4.28
250.191	4.25
250.567	4.25
250.943	4.22
251.318	4.18
251.694	4.17
252.069	4.16
252.445	4.15
252.82	4.14
253.196	4.1
253.571	4.09
253.947	4.08
254.322	4.07
254.697	4.07
255.073	4.03
255.448	4.04
255.823	4
256.198	3.98
256.573	3.97
256.948	3.98
257.323	3.95
257.698	3.91
258.073	3.89
258.448	3.87
258.823	3.86
259.198	3.84
259.573	3.81
259.948	3.8
260.322	3.78
260.697	3.75
261.072	3.73
261.446	3.75
261.821	3.74
262.195	3.74
262.57	3.71
262.944	3.69
263.319	3.71
263.693	3.71
264.067	3.69
264.442	3.69
264.816	3.68
265.19	3.7
265.564	3.72
265.938	3.7
266.313	3.72
266.687	3.72
267.061	3.72
267.435	3.72
267.809	3.71
268.183	3.72
268.556	3.72
268.93	3.73
269.304	3.72
269.678	3.72
270.051	3.69
270.425	3.69
270.799	3.69
271.172	3.72
271.546	3.71
271.919	3.71
272.293	3.69
272.666	3.69
273.04	3.72
273.413	3.75
273.787	3.76
274.16	3.77
274.533	3.77
274.906	3.78
275.279	3.78
275.653	3.8
276.026	3.8
276.399	3.81
276.772	3.8
277.145	3.8
277.518	3.81
277.891	3.81
278.263	3.8
278.636	3.81
279.009	3.79
279.382	3.79
279.755	3.79
280.127	3.8
280.5	3.81
280.872	3.82
281.245	3.83
281.617	3.83
281.99	3.85
282.362	3.83
282.735	3.84
283.107	3.84
283.479	3.83
283.852	3.85
284.224	3.85
284.596	3.84
284.968	3.85
285.34	3.87
285.713	3.88
286.085	3.89
286.457	3.9
286.829	3.92
287.201	3.92
287.572	3.93
287.944	3.95
288.316	3.95
288.688	3.92
289.06	3.93
289.431	3.95
289.803	3.96
290.175	3.99
290.546	4.01
290.918	4.03
291.289	4.04
291.661	4.07
292.032	4.08
292.403	4.1
292.775	4.12
293.146	4.16
293.517	4.19
293.889	4.2
294.26	4.24
294.631	4.28
295.002	4.32
295.373	4.34
295.744	4.35
296.115	4.38
296.486	4.41
296.857	4.44
297.228	4.47
297.599	4.52
297.97	4.55
298.34	4.58
298.711	4.62
299.082	4.65
299.452	4.7
299.823	4.75
300.194	4.78
300.564	4.82
300.935	4.87
301.305	4.91
301.676	4.95
302.046	4.99
302.416	5.04
302.787	5.08
303.157	5.12
303.527	5.18
303.897	5.25
304.267	5.3
304.637	5.35
305.008	5.42
305.378	5.47
305.748	5.52
306.117	5.57
306.487	5.65
306.857	5.72
307.227	5.78
307.597	5.84
307.967	5.91
308.336	5.95
308.706	6
309.076	6.05
309.445	6.12
309.815	6.16
310.184	6.22
310.554	6.27
310.923	6.34
311.293	6.39
311.662	6.44
312.031	6.48
312.401	6.57
312.77	6.63
313.139	6.68
313.508	6.76
313.877	6.83
314.246	6.88
314.616	6.91
314.985	6.98
315.353	7.03
315.722	7.08
316.091	7.12
316.46	7.18
316.829	7.24
317.198	7.32
317.567	7.4
317.935	7.48
318.304	7.56
318.672	7.62
319.041	7.71
319.41	7.78
319.778	7.86
320.147	7.92
320.515	7.99
320.883	8.05
321.252	8.13
321.62	8.19
321.988	8.26
322.357	8.34
322.725	8.4
323.093	8.45
323.461	8.51
323.829	8.59
324.197	8.67
324.565	8.71
324.933	8.78
325.301	8.84
325.669	8.92
326.037	8.95
326.405	9.01
326.772	9.06
327.14	9.12
327.508	9.15
327.875	9.19
328.243	9.23
328.61	9.24
328.978	9.29
329.346	9.33
329.713	9.4
330.08	9.43
330.448	9.47
330.815	9.51
331.182	9.56
331.55	9.59
331.917	9.63
332.284	9.64
332.651	9.66
333.018	9.71
333.385	9.74
333.752	9.79
334.119	9.82
334.486	9.88
334.853	9.91
335.22	9.97
335.587	10.01
335.954	10.06
336.32	10.09
336.687	10.13
337.054	10.17
337.42	10.2
337.787	10.24
338.153	10.28
338.52	10.32
338.886	10.34
339.253	10.37
339.619	10.44
339.986	10.46
340.352	10.49
340.718	10.5
341.084	10.53
341.451	10.57
341.817	10.6
342.183	10.64
342.549	10.66
342.915	10.7
343.281	10.74
343.647	10.79
344.013	10.81
344.379	10.85
344.745	10.87
345.11	10.89
345.476	10.93
345.842	10.97
346.208	10.99
346.573	11.02
346.939	11.05
347.304	11.08
347.67	11.11
348.035	11.14
348.401	11.17
348.766	11.19
349.132	11.22
349.497	11.24
349.862	11.25
350.228	11.27
350.593	11.28
350.958	11.29
351.323	11.3
351.688	11.31
352.053	11.32
352.418	11.33
352.783	11.32
353.148	11.32
353.513	11.33
353.878	11.33
354.243	11.32
354.608	11.29
354.972	11.3
355.337	11.29
355.702	11.29
356.066	11.29
356.431	11.27
356.795	11.26
357.16	11.24
357.524	11.24
357.889	11.23
358.253	11.21
358.618	11.18
358.982	11.16
359.346	11.14
359.71	11.12
360.075	11.1
360.439	11.08
360.803	11.07
361.167	11.05
361.531	11.02
361.895	11.01
362.259	10.98
362.623	10.95
362.987	10.92
363.351	10.89
363.714	10.86
364.078	10.82
364.442	10.78
364.806	10.75
365.169	10.72
365.533	10.68
365.896	10.65
366.26	10.61
366.623	10.56
366.987	10.52
367.35	10.47
367.714	10.43
368.077	10.38
368.44	10.33
368.803	10.27
369.167	10.21
369.53	10.15
369.893	10.08
370.256	10.02
370.619	9.96
370.982	9.9
371.345	9.83
371.708	9.76
372.071	9.7
372.434	9.63
372.797	9.56
373.159	9.49
373.522	9.44
373.885	9.38
374.247	9.31
374.61	9.24
374.973	9.18
375.335	9.11
375.698	9.03
376.06	8.96
376.423	8.88
376.785	8.81
377.147	8.75
377.51	8.68
377.872	8.61
378.234	8.54
378.596	8.47
378.958	8.4
379.321	8.33
379.683	8.26
380.045	8.2
380.407	8.14
380.769	8.06
381.13	8
381.492	7.93
381.854	7.86
382.216	7.8
382.578	7.74
382.939	7.69
383.301	7.64
383.663	7.58
384.024	7.53
384.386	7.48
384.747	7.43
385.109	7.37
385.47	7.31
385.832	7.26
386.193	7.2
386.554	7.14
386.916	7.09
387.277	7.04
387.638	6.99
387.999	6.94
388.36	6.89
388.721	6.84
389.082	6.8
389.443	6.76
389.804	6.72
390.165	6.68
390.526	6.64
390.887	6.6
391.248	6.56
391.609	6.52
391.969	6.47
392.33	6.43
392.691	6.39
393.051	6.35
393.412	6.3
393.772	6.26
394.133	6.21
394.493	6.17
394.854	6.12
395.214	6.07
395.574	6.04
395.935	6
396.295	5.96
396.655	5.91
397.015	5.88
397.376	5.83
397.736	5.78
398.096	5.74
398.456	5.7
398.816	5.65
399.176	5.61
399.535	5.57
399.895	5.53
400.255	5.49
400.615	5.45
400.975	5.42
401.334	5.38
401.694	5.35
402.054	5.32
402.413	5.28
402.773	5.24
403.132	5.21
403.492	5.18
403.851	5.15
404.211	5.13
404.57	5.11
404.929	5.08
405.288	5.05
405.648	5.03
406.007	5.01
406.366	4.99
406.725	4.97
407.084	4.95
407.443	4.93
407.802	4.92
408.161	4.9
408.52	4.89
408.879	4.88
409.238	4.86
409.596	4.84
409.955	4.83
410.314	4.81
410.673	4.79
411.031	4.78
411.39	4.77
411.748	4.75
412.107	4.74
412.465	4.73
412.824	4.74
413.182	4.74
413.54	4.75
413.899	4.76
414.257	4.78
414.615	4.8
414.974	4.81
415.332	4.83
415.69	4.86
416.048	4.87
416.406	4.9
416.764	4.91
417.122	4.93
417.48	4.95
417.838	4.96
418.195	4.97
418.553	4.98
418.911	4.97
419.269	4.96
419.626	4.94
419.984	4.92
420.342	4.89
420.699	4.86
421.057	4.82
421.414	4.79
421.772	4.77
422.129	4.75
422.486	4.74
422.844	4.72
423.201	4.71
423.558	4.69
423.915	4.68
424.273	4.67
424.63	4.66
424.987	4.64
425.344	4.63
425.701	4.62
426.058	4.61
426.415	4.6
426.772	4.59
427.128	4.58
427.485	4.55
427.842	4.53
428.199	4.51
428.555	4.48
428.912	4.45
429.269	4.41
429.625	4.38
429.982	4.35
430.338	4.31
430.695	4.28
431.051	4.24
431.407	4.22
431.764	4.2
432.12	4.17
432.476	4.15
432.832	4.14
433.189	4.13
433.545	4.13
433.901	4.15
434.257	4.16
434.613	4.19
434.969	4.21
435.325	4.24
435.681	4.28
436.036	4.29
436.392	4.31
436.748	4.33
437.104	4.33
437.459	4.35
437.815	4.37
438.171	4.39
438.526	4.41
438.882	4.44
439.237	4.47
439.593	4.51
439.948	4.53
440.304	4.57
440.659	4.59
441.014	4.61
441.369	4.63
441.725	4.64
442.08	4.65
442.435	4.66
442.79	4.66
443.145	4.66
443.5	4.66
443.855	4.65
444.21	4.65
444.565	4.64
444.92	4.63
445.275	4.62
445.629	4.6
445.984	4.59
446.339	4.57
446.693	4.55
447.048	4.53
447.403	4.51
447.757	4.48
448.112	4.46
448.466	4.43
448.82	4.4
449.175	4.37
449.529	4.35
449.883	4.33
450.238	4.3
450.592	4.29
450.946	4.28
451.3	4.27
451.654	4.27
452.008	4.26
452.362	4.26
452.716	4.25
453.07	4.25
453.424	4.24
453.778	4.23
454.132	4.22
454.486	4.21
454.839	4.18
455.193	4.16
455.547	4.15
455.9	4.11
456.254	4.1
456.607	4.07
456.961	4.04
457.314	4.02
457.668	4.02
458.021	4.01
458.375	4.01
458.728	4.01
459.081	4.02
459.434	4.03
459.787	4.04
460.141	4.05
460.494	4.07
460.847	4.08
461.2	4.09
461.553	4.1
461.906	4.11
462.259	4.13
462.611	4.13
462.964	4.15
463.317	4.16
463.67	4.17
464.022	4.19
464.375	4.2
464.728	4.21
465.08	4.22
465.433	4.24
465.785	4.25
466.138	4.25
466.49	4.24
466.843	4.24
467.195	4.24
467.547	4.23
467.899	4.22
468.252	4.21
468.604	4.2
468.956	4.19
469.308	4.19
469.66	4.2
470.012	4.21
470.364	4.23
470.716	4.24
471.068	4.27
471.42	4.3
471.772	4.33
472.123	4.35
472.475	4.37
472.827	4.39
473.178	4.4
473.53	4.42
473.882	4.44
474.233	4.46
474.585	4.51
474.936	4.57
475.288	4.66
475.639	4.78
475.99	4.92
476.342	5.07
476.693	5.23
477.044	5.39
477.395	5.56
477.746	5.73
478.097	5.9
478.448	6.07
478.8	6.24
479.15	6.39
479.501	6.53
479.852	6.65
480.203	6.78
480.554	6.89
480.905	6.99
481.255	7.09
481.606	7.19
481.957	7.28
482.307	7.37
482.658	7.45
483.009	7.52
483.359	7.6
483.709	7.67
484.06	7.74
484.41	7.81
484.761	7.87
485.111	7.94
485.461	8
485.811	8.05
486.162	8.1
486.512	8.15
486.862	8.18
487.212	8.21
487.562	8.22
487.912	8.23
488.262	8.23
488.612	8.23
488.961	8.21
489.311	8.17
489.661	8.1
490.011	8.02
490.36	7.91
490.71	7.8
491.06	7.68
491.409	7.54
491.759	7.41
492.108	7.26
492.458	7.12
492.807	6.97
493.157	6.82
493.506	6.69
493.855	6.56
494.204	6.45
494.554	6.34
494.903	6.24
495.252	6.16
495.601	6.07
495.95	6
496.299	5.94
496.648	5.88
496.997	5.84
497.346	5.79
497.695	5.75
498.043	5.73
498.392	5.7
498.741	5.69
499.09	5.68
499.438	5.68
499.787	5.69
500.135	5.71
500.484	5.73
500.832	5.78
501.181	5.84
501.529	5.93
501.878	6.03
502.226	6.14
502.574	6.26
502.923	6.39
503.271	6.53
503.619	6.68
503.967	6.83
504.315	6.99
504.663	7.16
505.011	7.33
505.359	7.5
505.707	7.69
506.055	7.88
506.403	8.08
506.751	8.29
507.098	8.51
507.446	8.73
507.794	8.97
508.141	9.22
508.489	9.49
508.837	9.76
509.184	10.04
509.531	10.32
509.879	10.63
510.226	10.97
510.574	11.3
510.921	11.66
511.268	12.03
511.616	12.41
511.963	12.8
512.31	13.2
512.657	13.6
513.004	14
513.351	14.39
513.698	14.76
514.045	15.12
514.392	15.46
514.739	15.79
515.086	16.13
515.432	16.45
515.779	16.78
516.126	17.13
516.473	17.51
516.819	17.9
517.166	18.32
517.512	18.77
517.859	19.24
518.205	19.74
518.552	20.27
518.898	20.83
519.245	21.47
519.591	22.21
519.937	23.06
520.283	24.02
520.629	25.06
520.976	26.14
521.322	27.25
521.668	28.38
522.014	29.51
522.36	30.62
522.706	31.73
523.052	32.81
523.398	33.83
523.743	34.78
524.089	35.64
524.435	36.44
524.781	37.24
525.126	38.02
525.472	38.78
525.817	39.52
526.163	40.24
526.509	40.95
526.854	41.65
527.199	42.34
527.545	43.02
527.89	43.73
528.235	44.41
528.581	45.07
528.926	45.68
529.271	46.26
529.616	46.81
529.961	47.33
530.306	47.79
530.651	48.22
530.996	48.61
531.341	48.97
531.686	49.29
532.031	49.59
532.376	49.93
532.721	50.28
533.065	50.67
533.41	51.06
533.755	51.4
534.099	51.67
534.444	51.87
534.788	52.02
535.133	52.15
535.477	52.23
535.822	52.26
536.166	52.23
536.51	52.12
536.855	51.93
537.199	51.69
537.543	51.46
537.887	51.26
538.231	51.13
538.576	51.01
538.92	50.85
539.264	50.69
539.608	50.49
539.951	50.27
540.295	50.02
540.639	49.76
540.983	49.47
541.327	49.17
541.671	48.87
542.014	48.59
542.358	48.35
542.701	48.25
543.045	48.21
543.389	48.2
543.732	48.23
544.075	48.27
544.419	48.34
544.762	48.42
545.105	48.52
545.449	48.64
545.792	48.77
546.135	48.89
546.478	48.95
546.821	48.95
547.165	48.85
547.508	48.68
547.851	48.44
548.194	48.13
548.536	47.77
548.879	47.35
549.222	46.9
549.565	46.44
549.908	46
550.25	45.59
550.593	45.25
550.936	45.02
551.278	44.85
551.621	44.75
551.963	44.67
552.306	44.62
552.648	44.6
552.991	44.64
553.333	44.69
553.675	44.78
554.017	44.91
554.36	45.08
554.702	45.29
555.044	45.55
555.386	45.85
555.728	46.18
556.07	46.45
556.412	46.73
556.754	46.86
557.096	46.99
557.438	47.13
557.78	47.26
558.121	47.39
558.463	47.52
558.805	47.65
559.147	47.77
559.488	47.9
559.83	48.03
560.171	48.15
560.513	48.27
560.854	48.38
561.196	48.49
561.537	48.59
561.878	48.7
562.22	48.81
562.561	48.92
562.902	49.03
563.243	49.14
563.584	49.25
563.925	49.36
564.266	49.46
564.607	49.58
564.948	49.68
565.289	49.78
565.63	49.88
565.971	49.98
566.312	50.08
566.653	50.19
566.993	50.28
567.334	50.38
567.675	50.46
568.015	50.54
568.356	50.62
568.696	50.7
569.037	50.77
569.377	50.85
569.718	50.92
570.058	50.98
570.398	51.05
570.739	51.11
571.079	51.17
571.419	51.22
571.759	51.28
572.099	51.34
572.439	51.39
572.779	51.43
573.119	51.48
573.459	51.52
573.799	51.58
574.139	51.62
574.479	51.67
574.819	51.72
575.158	51.77
575.498	51.82
575.838	51.86
576.177	51.89
576.517	51.93
576.856	51.97
577.196	52.01
577.535	52.04
577.875	52.08
578.214	52.11
578.553	52.14
578.893	52.18
579.232	52.21
579.571	52.25
579.91	52.28
580.25	52.31
580.589	52.33
580.928	52.36
581.267	52.38
581.606	52.42
581.945	52.46
582.283	52.5
582.622	52.54
582.961	52.59
583.3	52.64
583.639	52.67
583.977	52.73
584.316	52.78
584.654	52.83
584.993	52.88
585.332	52.93
585.67	52.97
586.008	53.02
586.347	53.07
586.685	53.12
587.024	53.16
587.362	53.22
587.7	53.27
588.038	53.32
588.376	53.38
588.715	53.43
589.053	53.48
589.391	53.54
589.729	53.62
590.067	53.69
590.404	53.75
590.742	53.8
591.08	53.85
591.418	53.91
591.756	53.95
592.093	54
592.431	54.04
592.769	54.07
593.106	54.1
593.444	54.13
593.781	54.17
594.119	54.2
594.456	54.24
594.793	54.28
595.131	54.32
595.468	54.35
595.805	54.39
596.143	54.43
596.48	54.48
596.817	54.53
597.154	54.57
597.491	54.62
597.828	54.66
598.165	54.71
598.502	54.76
598.839	54.79
599.176	54.83
599.512	54.87
599.849	54.9
600.186	54.92
600.523	54.96
600.859	54.99
601.196	55.02
601.532	55.05
601.869	55.07
602.205	55.1
602.542	55.13
602.878	55.16
603.215	55.18
603.551	55.2
603.887	55.22
604.223	55.25
604.56	55.28
604.896	55.3
605.232	55.32
605.568	55.35
605.904	55.37
606.24	55.39
606.576	55.42
606.912	55.43
607.248	55.45
607.583	55.46
607.919	55.49
608.255	55.5
608.591	55.52
608.926	55.54
609.262	55.57
609.597	55.58
609.933	55.59
610.268	55.6
610.604	55.61
610.939	55.61
611.275	55.61
611.61	55.62
611.945	55.62
612.281	55.62
612.616	55.64
612.951	55.66
613.286	55.67
613.621	55.67
613.956	55.71
614.291	55.71
614.626	55.72
614.961	55.74
615.296	55.76
615.631	55.77
615.966	55.78
616.3	55.79
616.635	55.8
616.97	55.81
617.304	55.82
617.639	55.84
617.973	55.85
618.308	55.87
618.642	55.88
618.977	55.91
619.311	55.93
619.646	55.94
619.98	55.97
620.314	55.98
620.648	56.01
620.983	56.03
621.317	56.07
621.651	56.09
621.985	56.11
622.319	56.14
622.653	56.16
622.987	56.17
623.321	56.19
623.655	56.21
623.988	56.24
624.322	56.25
624.656	56.29
624.99	56.31
625.323	56.33
625.657	56.34
625.99	56.35
626.324	56.36
626.657	56.37
626.991	56.38
627.324	56.4
627.658	56.42
627.991	56.44
628.324	56.46
628.657	56.47
628.991	56.48
629.324	56.5
629.657	56.5
629.99	56.54
630.323	56.55
630.656	56.57
630.989	56.58
631.322	56.59
631.655	56.6
631.987	56.62
632.32	56.62
632.653	56.63
632.986	56.65
633.318	56.67
633.651	56.67
633.984	56.69
634.316	56.69
634.649	56.71
634.981	56.72
635.313	56.73
635.646	56.75
635.978	56.74
636.31	56.77
636.643	56.79
636.975	56.81
637.307	56.81
637.639	56.83
637.971	56.84
638.303	56.86
638.635	56.87
638.967	56.88
639.299	56.9
639.631	56.93
639.963	56.95
640.295	56.97
640.626	56.98
640.958	57
641.29	57.02
641.621	57.04
641.953	57.05
642.285	57.06
642.616	57.08
642.948	57.1
643.279	57.13
643.61	57.12
643.942	57.14
644.273	57.16
644.604	57.19
644.936	57.2
645.267	57.23
645.598	57.24
645.929	57.27
646.26	57.28
646.591	57.3
646.922	57.3
647.253	57.32
647.584	57.34
647.915	57.37
648.245	57.41
648.576	57.42
648.907	57.43
649.238	57.43
649.568	57.45
649.899	57.45
650.229	57.45
650.56	57.46
650.89	57.49
651.221	57.5
651.551	57.51
651.882	57.52
652.212	57.54
652.542	57.55
652.872	57.57
653.203	57.58
653.533	57.6
653.863	57.61
654.193	57.62
654.523	57.63
654.853	57.64
655.183	57.65
655.513	57.66
655.843	57.69
656.172	57.69
656.502	57.69
656.832	57.69
657.162	57.7
657.491	57.72
657.821	57.71
658.15	57.72
658.48	57.73
658.809	57.71
659.139	57.71
659.468	57.71
659.798	57.73
660.127	57.73
660.456	57.74
660.785	57.75
661.115	57.75
661.444	57.75
661.773	57.76
662.102	57.76
662.431	57.79
662.76	57.83
663.089	57.84
663.418	57.85
663.747	57.86
664.076	57.89
664.404	57.9
664.733	57.93
665.062	57.96
665.39	57.98
665.719	57.99
666.048	58
666.376	58.01
666.705	58.02
667.033	58.03
667.362	58.04
667.69	58.05
668.018	58.06
668.347	58.09
668.675	58.11
669.003	58.12
