Data from UWBM12228_Reflection_00002.txt Node
Date: Sun May 02 12:52:36 EDT 2021
User: vgr7
Spectrometer: USB2G7710
Scans to average: 10
Trigger mode: 4
Integration Time (sec): 1.000000E-1
Electric dark correction enabled: true
Boxcar width: 20
XAxis mode: Wavelengths
Number of Pixels in Spectrum: 2048
>>>>>Begin Spectral Data<<<<<
177.721	101.65
178.105	100.66
178.488	99.13
178.871	98.72
179.254	98.23
179.636	95.53
180.019	93.64
180.402	91.04
180.785	89.29
181.168	86.84
181.55	83.98
181.933	115.41
182.316	115.94
182.698	117.36
183.081	118.5
183.463	119.36
183.846	120.73
184.228	121.91
184.611	122.44
184.993	124.81
185.376	127.63
185.758	-99.09
186.14	-41.35
186.522	-13.22
186.904	-1.43
187.287	11.63
187.669	13.27
188.051	16.18
188.433	22.28
188.815	17.3
189.197	13.81
189.579	12.1
189.961	11.24
190.342	7.36
190.724	9.95
191.106	7.55
191.488	7.45
191.869	4.04
192.251	4.73
192.633	0.47
193.014	-3.37
193.396	-5.69
193.777	2.95
194.159	3.87
194.54	1.49
194.922	0.99
195.303	3.85
195.684	4.17
196.065	5.24
196.447	3.49
196.828	3.52
197.209	5.02
197.59	-5.25
197.971	-4.9
198.352	-4.03
198.733	-1.91
199.114	-2.7
199.495	-3.4
199.876	-4.1
200.257	-5.65
200.638	-6.67
201.018	-13.33
201.399	-13.6
201.78	-15.73
202.16	-15.68
202.541	-13.9
202.922	-17.06
203.302	-19.41
203.683	-19.56
204.063	-20.47
204.444	-18.67
204.824	-13.99
205.204	-10.71
205.585	-0.56
205.965	-0.46
206.345	1.87
206.725	-3.82
207.106	-2.29
207.486	-2.83
207.866	-1.97
208.246	-1.64
208.626	1.9
209.006	7.02
209.386	3.04
209.766	3.01
210.145	2.96
210.525	2.7
210.905	3.56
211.285	5.03
211.664	3.28
212.044	5.54
212.424	4.26
212.803	-2.23
213.183	0.44
213.562	-0.2
213.942	-2.05
214.321	-4.85
214.701	-6.08
215.08	-5.62
215.459	-5.75
215.838	-5.84
216.218	-5.26
216.597	-4.85
216.976	-8.73
217.355	-8.04
217.734	-7.93
218.113	-7.51
218.492	-4.72
218.871	-3.3
219.25	-2.4
219.629	-2.35
220.008	-1.72
220.387	-0.15
220.766	0.48
221.144	0.11
221.523	1.5
221.902	1.25
222.28	2.98
222.659	3.59
223.037	3.82
223.416	3.69
223.794	4.49
224.173	4.04
224.551	3.89
224.929	3.91
225.308	5.05
225.686	4.87
226.064	4.93
226.442	4.84
226.821	4.68
227.199	4.58
227.577	3.73
227.955	3.29
228.333	3.89
228.711	3.62
229.089	3.93
229.467	3.87
229.845	4.49
230.222	4.49
230.6	4.85
230.978	4.8
231.356	4.22
231.733	4.21
232.111	4.13
232.488	3.98
232.866	4.22
233.243	4.12
233.621	4.26
233.998	4.08
234.376	4.24
234.753	4.35
235.13	4.38
235.508	4.83
235.885	4.74
236.262	4.65
236.639	4.71
237.016	4.7
237.393	4.69
237.77	4.45
238.147	4.39
238.524	4.41
238.901	4.55
239.278	4.63
239.655	4.58
240.032	4.55
240.409	4.64
240.785	4.56
241.162	4.64
241.539	4.64
241.915	4.69
242.292	4.72
242.668	4.68
243.045	4.7
243.421	4.62
243.798	4.55
244.174	4.58
244.551	4.5
244.927	4.34
245.303	4.29
245.679	4.31
246.056	4.27
246.432	4.27
246.808	4.07
247.184	4.07
247.56	4.06
247.936	4.09
248.312	4.05
248.688	4.09
249.064	4.06
249.44	4.05
249.815	4.04
250.191	4
250.567	3.98
250.943	4.02
251.318	4.05
251.694	4.01
252.069	3.96
252.445	3.97
252.82	4.08
253.196	4.1
253.571	4.07
253.947	4.15
254.322	4.1
254.697	4.23
255.073	4.22
255.448	4.2
255.823	4.16
256.198	4.12
256.573	3.94
256.948	3.92
257.323	3.91
257.698	3.82
258.073	3.83
258.448	3.71
258.823	3.71
259.198	3.7
259.573	3.72
259.948	3.77
260.322	3.74
260.697	3.76
261.072	3.79
261.446	3.78
261.821	3.76
262.195	3.74
262.57	3.7
262.944	3.69
263.319	3.67
263.693	3.7
264.067	3.71
264.442	3.81
264.816	3.79
265.19	3.77
265.564	3.8
265.938	3.77
266.313	3.84
266.687	3.79
267.061	3.8
267.435	3.78
267.809	3.76
268.183	3.73
268.556	3.75
268.93	3.76
269.304	3.75
269.678	3.72
270.051	3.7
270.425	3.71
270.799	3.72
271.172	3.74
271.546	3.75
271.919	3.76
272.293	3.74
272.666	3.74
273.04	3.73
273.413	3.68
273.787	3.68
274.16	3.68
274.533	3.72
274.906	3.69
275.279	3.7
275.653	3.68
276.026	3.65
276.399	3.59
276.772	3.59
277.145	3.63
277.518	3.65
277.891	3.68
278.263	3.69
278.636	3.69
279.009	3.71
279.382	3.69
279.755	3.62
280.127	3.63
280.5	3.63
280.872	3.62
281.245	3.71
281.617	3.7
281.99	3.71
282.362	3.73
282.735	3.73
283.107	3.74
283.479	3.75
283.852	3.76
284.224	3.79
284.596	3.75
284.968	3.63
285.34	3.62
285.713	3.61
286.085	3.53
286.457	3.52
286.829	3.49
287.201	3.48
287.572	3.54
287.944	3.53
288.316	3.57
288.688	3.6
289.06	3.59
289.431	3.59
289.803	3.58
290.175	3.59
290.546	3.6
290.918	3.62
291.289	3.59
291.661	3.6
292.032	3.56
292.403	3.56
292.775	3.64
293.146	3.63
293.517	3.65
293.889	3.72
294.26	3.7
294.631	3.71
295.002	3.75
295.373	3.78
295.744	3.77
296.115	3.77
296.486	3.72
296.857	3.71
297.228	3.71
297.599	3.7
297.97	3.68
298.34	3.69
298.711	3.64
299.082	3.64
299.452	3.65
299.823	3.68
300.194	3.7
300.564	3.68
300.935	3.69
301.305	3.66
301.676	3.65
302.046	3.64
302.416	3.63
302.787	3.62
303.157	3.56
303.527	3.55
303.897	3.55
304.267	3.56
304.637	3.56
305.008	3.58
305.378	3.6
305.748	3.58
306.117	3.63
306.487	3.68
306.857	3.72
307.227	3.72
307.597	3.7
307.967	3.7
308.336	3.71
308.706	3.72
309.076	3.72
309.445	3.72
309.815	3.61
310.184	3.59
310.554	3.53
310.923	3.56
311.293	3.56
311.662	3.55
312.031	3.53
312.401	3.52
312.77	3.51
313.139	3.5
313.508	3.52
313.877	3.45
314.246	3.43
314.616	3.4
314.985	3.34
315.353	3.34
315.722	3.34
316.091	3.33
316.46	3.33
316.829	3.36
317.198	3.37
317.567	3.5
317.935	3.51
318.304	3.55
318.672	3.59
319.041	3.57
319.41	3.58
319.778	3.59
320.147	3.6
320.515	3.58
320.883	3.57
321.252	3.49
321.62	3.53
321.988	3.53
322.357	3.53
322.725	3.59
323.093	3.59
323.461	3.6
323.829	3.59
324.197	3.58
324.565	3.57
324.933	3.58
325.301	3.57
325.669	3.58
326.037	3.58
326.405	3.54
326.772	3.52
327.14	3.52
327.508	3.51
327.875	3.52
328.243	3.52
328.61	3.48
328.978	3.49
329.346	3.49
329.713	3.46
330.08	3.46
330.448	3.45
330.815	3.42
331.182	3.42
331.55	3.42
331.917	3.42
332.284	3.42
332.651	3.43
333.018	3.43
333.385	3.43
333.752	3.44
334.119	3.46
334.486	3.45
334.853	3.43
335.22	3.42
335.587	3.41
335.954	3.42
336.32	3.44
336.687	3.43
337.054	3.43
337.42	3.44
337.787	3.44
338.153	3.45
338.52	3.48
338.886	3.51
339.253	3.5
339.619	3.48
339.986	3.45
340.352	3.45
340.718	3.45
341.084	3.45
341.451	3.44
341.817	3.44
342.183	3.42
342.549	3.44
342.915	3.43
343.281	3.45
343.647	3.46
344.013	3.48
344.379	3.48
344.745	3.49
345.11	3.49
345.476	3.5
345.842	3.53
346.208	3.5
346.573	3.49
346.939	3.5
347.304	3.49
347.67	3.49
348.035	3.51
348.401	3.5
348.766	3.51
349.132	3.5
349.497	3.53
349.862	3.53
350.228	3.54
350.593	3.55
350.958	3.54
351.323	3.52
351.688	3.53
352.053	3.51
352.418	3.52
352.783	3.52
353.148	3.51
353.513	3.48
353.878	3.48
354.243	3.48
354.608	3.48
354.972	3.48
355.337	3.49
355.702	3.47
356.066	3.48
356.431	3.47
356.795	3.47
357.16	3.45
357.524	3.45
357.889	3.45
358.253	3.46
358.618	3.46
358.982	3.47
359.346	3.47
359.71	3.47
360.075	3.48
360.439	3.49
360.803	3.47
361.167	3.46
361.531	3.48
361.895	3.48
362.259	3.48
362.623	3.48
362.987	3.47
363.351	3.47
363.714	3.47
364.078	3.47
364.442	3.47
364.806	3.48
365.169	3.46
365.533	3.45
365.896	3.45
366.26	3.45
366.623	3.44
366.987	3.44
367.35	3.44
367.714	3.45
368.077	3.45
368.44	3.45
368.803	3.46
369.167	3.46
369.53	3.46
369.893	3.47
370.256	3.47
370.619	3.48
370.982	3.48
371.345	3.47
371.708	3.48
372.071	3.48
372.434	3.49
372.797	3.51
373.159	3.52
373.522	3.52
373.885	3.51
374.247	3.49
374.61	3.49
374.973	3.47
375.335	3.47
375.698	3.47
376.06	3.47
376.423	3.47
376.785	3.47
377.147	3.46
377.51	3.47
377.872	3.48
378.234	3.47
378.596	3.49
378.958	3.5
379.321	3.5
379.683	3.51
380.045	3.5
380.407	3.51
380.769	3.51
381.13	3.51
381.492	3.52
381.854	3.52
382.216	3.52
382.578	3.51
382.939	3.52
383.301	3.52
383.663	3.52
384.024	3.51
384.386	3.52
384.747	3.52
385.109	3.51
385.47	3.51
385.832	3.52
386.193	3.51
386.554	3.51
386.916	3.52
387.277	3.52
387.638	3.53
387.999	3.53
388.36	3.54
388.721	3.54
389.082	3.54
389.443	3.54
389.804	3.55
390.165	3.55
390.526	3.55
390.887	3.55
391.248	3.54
391.609	3.56
391.969	3.56
392.33	3.56
392.691	3.56
393.051	3.57
393.412	3.56
393.772	3.57
394.133	3.57
394.493	3.57
394.854	3.58
395.214	3.57
395.574	3.57
395.935	3.57
396.295	3.57
396.655	3.57
397.015	3.57
397.376	3.57
397.736	3.57
398.096	3.57
398.456	3.57
398.816	3.59
399.176	3.58
399.535	3.59
399.895	3.6
400.255	3.6
400.615	3.6
400.975	3.61
401.334	3.61
401.694	3.61
402.054	3.61
402.413	3.6
402.773	3.6
403.132	3.61
403.492	3.6
403.851	3.61
404.211	3.62
404.57	3.63
404.929	3.64
405.288	3.64
405.648	3.65
406.007	3.65
406.366	3.66
406.725	3.66
407.084	3.66
407.443	3.66
407.802	3.66
408.161	3.65
408.52	3.65
408.879	3.65
409.238	3.65
409.596	3.65
409.955	3.67
410.314	3.67
410.673	3.66
411.031	3.67
411.39	3.68
411.748	3.69
412.107	3.7
412.465	3.71
412.824	3.73
413.182	3.74
413.54	3.76
413.899	3.78
414.257	3.81
414.615	3.84
414.974	3.87
415.332	3.91
415.69	3.95
416.048	3.97
416.406	4.01
416.764	4.04
417.122	4.07
417.48	4.1
417.838	4.12
418.195	4.15
418.553	4.17
418.911	4.19
419.269	4.19
419.626	4.19
419.984	4.18
420.342	4.17
420.699	4.15
421.057	4.14
421.414	4.13
421.772	4.11
422.129	4.11
422.486	4.11
422.844	4.11
423.201	4.11
423.558	4.12
423.915	4.11
424.273	4.12
424.63	4.12
424.987	4.12
425.344	4.12
425.701	4.12
426.058	4.13
426.415	4.13
426.772	4.12
427.128	4.12
427.485	4.11
427.842	4.11
428.199	4.1
428.555	4.09
428.912	4.08
429.269	4.06
429.625	4.04
429.982	4.02
430.338	3.99
430.695	3.98
431.051	3.95
431.407	3.93
431.764	3.92
432.12	3.89
432.476	3.89
432.832	3.88
433.189	3.88
433.545	3.88
433.901	3.9
434.257	3.92
434.613	3.94
434.969	3.96
435.325	3.98
435.681	4.02
436.036	4.03
436.392	4.05
436.748	4.06
437.104	4.06
437.459	4.08
437.815	4.1
438.171	4.11
438.526	4.13
438.882	4.16
439.237	4.19
439.593	4.22
439.948	4.25
440.304	4.28
440.659	4.3
441.014	4.32
441.369	4.35
441.725	4.36
442.08	4.38
442.435	4.39
442.79	4.39
443.145	4.39
443.5	4.39
443.855	4.39
444.21	4.39
444.565	4.39
444.92	4.38
445.275	4.37
445.629	4.36
445.984	4.35
446.339	4.35
446.693	4.35
447.048	4.33
447.403	4.32
447.757	4.3
448.112	4.29
448.466	4.27
448.82	4.25
449.175	4.24
449.529	4.23
449.883	4.22
450.238	4.2
450.592	4.2
450.946	4.19
451.3	4.19
451.654	4.2
452.008	4.2
452.362	4.21
452.716	4.21
453.07	4.22
453.424	4.22
453.778	4.21
454.132	4.19
454.486	4.19
454.839	4.17
455.193	4.15
455.547	4.14
455.9	4.11
456.254	4.1
456.607	4.07
456.961	4.04
457.314	4.03
457.668	4.02
458.021	4.01
458.375	4.01
458.728	4.02
459.081	4.02
459.434	4.03
459.787	4.03
460.141	4.05
460.494	4.05
460.847	4.05
461.2	4.05
461.553	4.06
461.906	4.07
462.259	4.07
462.611	4.07
462.964	4.08
463.317	4.08
463.67	4.08
464.022	4.08
464.375	4.08
464.728	4.08
465.08	4.08
465.433	4.08
465.785	4.07
466.138	4.06
466.49	4.04
466.843	4.02
467.195	4.01
467.547	3.98
467.899	3.96
468.252	3.93
468.604	3.91
468.956	3.9
469.308	3.88
469.66	3.88
470.012	3.87
470.364	3.87
470.716	3.87
471.068	3.89
471.42	3.91
471.772	3.93
472.123	3.94
472.475	3.95
472.827	3.95
473.178	3.96
473.53	3.97
473.882	3.98
474.233	4
474.585	4.03
474.936	4.09
475.288	4.17
475.639	4.28
475.99	4.41
476.342	4.55
476.693	4.71
477.044	4.86
477.395	5.03
477.746	5.19
478.097	5.36
478.448	5.53
478.8	5.69
479.15	5.84
479.501	5.99
479.852	6.11
480.203	6.23
480.554	6.35
480.905	6.46
481.255	6.56
481.606	6.67
481.957	6.75
482.307	6.85
482.658	6.94
483.009	7.01
483.359	7.09
483.709	7.17
484.06	7.24
484.41	7.31
484.761	7.38
485.111	7.44
485.461	7.51
485.811	7.56
486.162	7.62
486.512	7.66
486.862	7.7
487.212	7.73
487.562	7.75
487.912	7.76
488.262	7.76
488.612	7.76
488.961	7.74
489.311	7.71
489.661	7.64
490.011	7.56
490.36	7.46
490.71	7.33
491.06	7.2
491.409	7.07
491.759	6.92
492.108	6.78
492.458	6.63
492.807	6.47
493.157	6.3
493.506	6.15
493.855	6
494.204	5.87
494.554	5.74
494.903	5.62
495.252	5.51
495.601	5.39
495.95	5.28
496.299	5.18
496.648	5.09
496.997	4.99
497.346	4.91
497.695	4.82
498.043	4.75
498.392	4.67
498.741	4.59
499.09	4.52
499.438	4.44
499.787	4.38
500.135	4.31
500.484	4.26
500.832	4.21
501.181	4.17
501.529	4.14
501.878	4.12
502.226	4.11
502.574	4.1
502.923	4.09
503.271	4.09
503.619	4.09
503.967	4.09
504.315	4.09
504.663	4.08
505.011	4.07
505.359	4.07
505.707	4.06
506.055	4.06
506.403	4.06
506.751	4.06
507.098	4.06
507.446	4.06
507.794	4.07
508.141	4.08
508.489	4.1
508.837	4.11
509.184	4.12
509.531	4.14
509.879	4.15
510.226	4.16
510.574	4.17
510.921	4.18
511.268	4.19
511.616	4.21
511.963	4.22
512.31	4.24
512.657	4.25
513.004	4.27
513.351	4.29
513.698	4.29
514.045	4.3
514.392	4.3
514.739	4.31
515.086	4.3
515.432	4.3
515.779	4.3
516.126	4.3
516.473	4.3
516.819	4.3
517.166	4.31
517.512	4.32
517.859	4.33
518.205	4.34
518.552	4.36
518.898	4.39
519.245	4.43
519.591	4.48
519.937	4.54
520.283	4.63
520.629	4.72
520.976	4.82
521.322	4.93
521.668	5.03
522.014	5.14
522.36	5.24
522.706	5.34
523.052	5.45
523.398	5.54
523.743	5.63
524.089	5.7
524.435	5.76
524.781	5.82
525.126	5.87
525.472	5.92
525.817	5.97
526.163	6.02
526.509	6.06
526.854	6.1
527.199	6.15
527.545	6.19
527.89	6.23
528.235	6.27
528.581	6.32
528.926	6.36
529.271	6.4
529.616	6.43
529.961	6.45
530.306	6.47
530.651	6.5
530.996	6.51
531.341	6.52
531.686	6.52
532.031	6.52
532.376	6.52
532.721	6.52
533.065	6.52
533.41	6.52
533.755	6.52
534.099	6.48
534.444	6.45
534.788	6.42
535.133	6.38
535.477	6.34
535.822	6.29
536.166	6.24
536.51	6.17
536.855	6.1
537.199	6.03
537.543	5.95
537.887	5.89
538.231	5.83
538.576	5.78
538.92	5.72
539.264	5.67
539.608	5.62
539.951	5.56
540.295	5.5
540.639	5.44
540.983	5.38
541.327	5.34
541.671	5.29
542.014	5.23
542.358	5.18
542.701	5.14
543.045	5.11
543.389	5.1
543.732	5.07
544.075	5.06
544.419	5.05
544.762	5.02
545.105	5.01
545.449	5.01
545.792	5
546.135	5
546.478	4.99
546.821	4.97
547.165	4.94
547.508	4.9
547.851	4.85
548.194	4.8
548.536	4.75
548.879	4.69
549.222	4.63
549.565	4.56
549.908	4.49
550.25	4.44
550.593	4.39
550.936	4.34
551.278	4.31
551.621	4.28
551.963	4.26
552.306	4.24
552.648	4.22
552.991	4.2
553.333	4.19
553.675	4.19
554.017	4.19
554.36	4.19
554.702	4.2
555.044	4.21
555.386	4.22
555.728	4.23
556.07	4.23
556.412	4.24
556.754	4.24
557.096	4.24
557.438	4.24
557.78	4.24
558.121	4.24
558.463	4.24
558.805	4.24
559.147	4.24
559.488	4.25
559.83	4.25
560.171	4.25
560.513	4.25
560.854	4.24
561.196	4.24
561.537	4.24
561.878	4.24
562.22	4.25
562.561	4.24
562.902	4.26
563.243	4.26
563.584	4.26
563.925	4.26
564.266	4.26
564.607	4.26
564.948	4.26
565.289	4.27
565.63	4.27
565.971	4.27
566.312	4.28
566.653	4.28
566.993	4.27
567.334	4.28
567.675	4.28
568.015	4.3
568.356	4.3
568.696	4.3
569.037	4.3
569.377	4.3
569.718	4.31
570.058	4.31
570.398	4.31
570.739	4.31
571.079	4.31
571.419	4.31
571.759	4.31
572.099	4.3
572.439	4.3
572.779	4.31
573.119	4.31
573.459	4.3
573.799	4.3
574.139	4.31
574.479	4.32
574.819	4.31
575.158	4.31
575.498	4.31
575.838	4.31
576.177	4.31
576.517	4.31
576.856	4.3
577.196	4.3
577.535	4.3
577.875	4.3
578.214	4.3
578.553	4.3
578.893	4.29
579.232	4.29
579.571	4.29
579.91	4.29
580.25	4.28
580.589	4.28
580.928	4.28
581.267	4.27
581.606	4.26
581.945	4.26
582.283	4.26
582.622	4.26
582.961	4.26
583.3	4.26
583.639	4.26
583.977	4.26
584.316	4.26
584.654	4.27
584.993	4.26
585.332	4.26
585.67	4.26
586.008	4.26
586.347	4.26
586.685	4.26
587.024	4.27
587.362	4.26
587.7	4.27
588.038	4.27
588.376	4.26
588.715	4.26
589.053	4.27
589.391	4.27
589.729	4.27
590.067	4.27
590.404	4.27
590.742	4.27
591.08	4.27
591.418	4.28
591.756	4.28
592.093	4.29
592.431	4.29
592.769	4.29
593.106	4.3
593.444	4.3
593.781	4.29
594.119	4.29
594.456	4.29
594.793	4.29
595.131	4.29
595.468	4.29
595.805	4.29
596.143	4.29
596.48	4.29
596.817	4.29
597.154	4.29
597.491	4.3
597.828	4.3
598.165	4.3
598.502	4.3
598.839	4.31
599.176	4.31
599.512	4.31
599.849	4.32
600.186	4.32
600.523	4.32
600.859	4.32
601.196	4.33
601.532	4.33
601.869	4.33
602.205	4.33
602.542	4.33
602.878	4.33
603.215	4.32
603.551	4.32
603.887	4.32
604.223	4.32
604.56	4.32
604.896	4.32
605.232	4.32
605.568	4.32
605.904	4.32
606.24	4.32
606.576	4.33
606.912	4.33
607.248	4.33
607.583	4.33
607.919	4.33
608.255	4.33
608.591	4.33
608.926	4.33
609.262	4.34
609.597	4.34
609.933	4.34
610.268	4.36
610.604	4.37
610.939	4.37
611.275	4.36
611.61	4.36
611.945	4.36
612.281	4.36
612.616	4.35
612.951	4.33
613.286	4.33
613.621	4.32
613.956	4.32
614.291	4.32
614.626	4.32
614.961	4.32
615.296	4.33
615.631	4.33
615.966	4.33
616.3	4.33
616.635	4.33
616.97	4.33
617.304	4.33
617.639	4.33
617.973	4.33
618.308	4.33
618.642	4.32
618.977	4.31
619.311	4.3
619.646	4.3
619.98	4.31
620.314	4.3
620.648	4.31
620.983	4.31
621.317	4.31
621.651	4.31
621.985	4.31
622.319	4.31
622.653	4.31
622.987	4.31
623.321	4.31
623.655	4.31
623.988	4.32
624.322	4.31
624.656	4.31
624.99	4.32
625.323	4.32
625.657	4.32
625.99	4.33
626.324	4.34
626.657	4.35
626.991	4.35
627.324	4.35
627.658	4.35
627.991	4.35
628.324	4.36
628.657	4.36
628.991	4.37
629.324	4.37
629.657	4.38
629.99	4.38
630.323	4.39
630.656	4.39
630.989	4.38
631.322	4.39
631.655	4.38
631.987	4.38
632.32	4.39
632.653	4.39
632.986	4.4
633.318	4.4
633.651	4.39
633.984	4.39
634.316	4.41
634.649	4.41
634.981	4.42
635.313	4.42
635.646	4.42
635.978	4.42
636.31	4.41
636.643	4.4
636.975	4.41
637.307	4.4
637.639	4.4
637.971	4.41
638.303	4.41
638.635	4.41
638.967	4.41
639.299	4.41
639.631	4.42
639.963	4.43
640.295	4.44
640.626	4.46
640.958	4.46
641.29	4.46
641.621	4.45
641.953	4.46
642.285	4.46
642.616	4.47
642.948	4.45
643.279	4.46
643.61	4.46
643.942	4.45
644.273	4.45
644.604	4.46
644.936	4.46
645.267	4.46
645.598	4.47
645.929	4.47
646.26	4.46
646.591	4.46
646.922	4.45
647.253	4.46
647.584	4.46
647.915	4.46
648.245	4.46
648.576	4.47
648.907	4.45
649.238	4.45
649.568	4.45
649.899	4.45
650.229	4.45
650.56	4.46
650.89	4.46
651.221	4.47
651.551	4.47
651.882	4.48
652.212	4.47
652.542	4.47
652.872	4.46
653.203	4.47
653.533	4.46
653.863	4.46
654.193	4.45
654.523	4.45
654.853	4.45
655.183	4.45
655.513	4.45
655.843	4.45
656.172	4.46
656.502	4.47
656.832	4.46
657.162	4.46
657.491	4.46
657.821	4.46
658.15	4.45
658.48	4.45
658.809	4.45
659.139	4.45
659.468	4.47
659.798	4.47
660.127	4.47
660.456	4.51
660.785	4.51
661.115	4.52
661.444	4.53
661.773	4.54
662.102	4.54
662.431	4.55
662.76	4.55
663.089	4.54
663.418	4.55
663.747	4.55
664.076	4.57
664.404	4.57
664.733	4.58
665.062	4.59
665.39	4.6
665.719	4.6
666.048	4.59
666.376	4.59
666.705	4.57
667.033	4.56
667.362	4.56
667.69	4.57
668.018	4.57
668.347	4.57
668.675	4.55
669.003	4.56
669.331	4.56
669.659	4.55
669.987	4.56
670.315	4.56
670.643	4.59
670.971	4.59
671.299	4.58
671.627	4.59
671.955	4.59
672.283	4.58
672.61	4.6
672.938	4.61
673.266	4.62
673.593	4.62
673.921	4.62
674.249	4.63
674.576	4.64
674.904	4.65
675.231	4.65
675.558	4.67
675.886	4.68
676.213	4.69
676.54	4.7
676.867	4.7
677.195	4.7
677.522	4.7
677.849	4.71
678.176	4.73
678.503	4.74
678.83	4.74
679.157	4.75
679.484	4.74
679.81	4.74
680.137	4.73
680.464	4.74
680.791	4.73
