Data from UWBM79812_Reflection_00010.txt Node
Date: Sun May 02 13:58:15 EDT 2021
User: vgr7
Spectrometer: USB2G7710
Scans to average: 10
Trigger mode: 4
Integration Time (sec): 1.000000E-1
Electric dark correction enabled: true
Boxcar width: 20
XAxis mode: Wavelengths
Number of Pixels in Spectrum: 2048
>>>>>Begin Spectral Data<<<<<
177.721	71.43
178.105	82.34
178.488	137.27
178.871	176
179.254	126.18
179.636	98.5
180.019	77.29
180.402	56.41
180.785	46.2
181.168	47.31
181.55	47.97
181.933	52.33
182.316	42.96
182.698	43.36
183.081	36.76
183.463	35.31
183.846	33.96
184.228	35.18
184.611	35.15
184.993	35.2
185.376	36.26
185.758	37.41
186.14	42.01
186.522	43.2
186.904	42.6
187.287	42.06
187.669	40.05
188.051	40.15
188.433	39.24
188.815	35.79
189.197	35.54
189.579	36.1
189.961	33.43
190.342	32.77
190.724	30.99
191.106	30.51
191.488	30
191.869	29.12
192.251	27.65
192.633	29.56
193.014	29.33
193.396	27.22
193.777	27.83
194.159	26.53
194.54	24.79
194.922	23.78
195.303	23.22
195.684	22.94
196.065	25.05
196.447	26.29
196.828	25.3
197.209	24.26
197.59	20.39
197.971	21.26
198.352	21.84
198.733	23.73
199.114	24.06
199.495	24.82
199.876	24.43
200.257	24.15
200.638	24.2
201.018	24.15
201.399	24.86
201.78	22.44
202.16	22.53
202.541	24.02
202.922	23.53
203.302	24.76
203.683	25.38
204.063	26.65
204.444	25.59
204.824	25.04
205.204	24.68
205.585	26.74
205.965	28.35
206.345	27.67
206.725	27.23
207.106	26.28
207.486	26.07
207.866	27.18
208.246	24.87
208.626	24.29
209.006	23.9
209.386	22.66
209.766	20.94
210.145	20.37
210.525	21
210.905	22.6
211.285	21.58
211.664	20.84
212.044	19.99
212.424	20.07
212.803	19.83
213.183	21.48
213.562	21.48
213.942	20.56
214.321	19.26
214.701	18.22
215.08	17.68
215.459	17.03
215.838	15.89
216.218	14.49
216.597	14.06
216.976	13.71
217.355	14.88
217.734	15.21
218.113	14.91
218.492	13.44
218.871	12.17
219.25	12.48
219.629	11.63
220.008	12.24
220.387	10.76
220.766	11.18
221.144	9.28
221.523	8.93
221.902	9.6
222.28	8.93
222.659	9.16
223.037	8.14
223.416	8.23
223.794	8.36
224.173	7.54
224.551	7.48
224.929	8.36
225.308	8.49
225.686	8.53
226.064	8.36
226.442	8.1
226.821	8.4
227.199	8.21
227.577	7.9
227.955	7.89
228.333	7.98
228.711	7.22
229.089	6.89
229.467	6.83
229.845	6.76
230.222	6.91
230.6	6.92
230.978	6.67
231.356	7.06
231.733	6.91
232.111	6.74
232.488	6.41
232.866	6.1
233.243	5.91
233.621	5.83
233.998	6.01
234.376	6.03
234.753	5.56
235.13	5.44
235.508	5.48
235.885	5.57
236.262	5.53
236.639	5.4
237.016	5.2
237.393	5.12
237.77	5.13
238.147	5.11
238.524	5.07
238.901	4.96
239.278	5.02
239.655	5.01
240.032	4.93
240.409	4.87
240.785	4.92
241.162	4.91
241.539	4.85
241.915	4.87
242.292	4.81
242.668	4.83
243.045	4.84
243.421	4.79
243.798	4.76
244.174	4.83
244.551	4.84
244.927	4.82
245.303	4.83
245.679	4.81
246.056	4.77
246.432	4.8
246.808	4.74
247.184	4.77
247.56	4.77
247.936	4.74
248.312	4.76
248.688	4.74
249.064	4.74
249.44	4.73
249.815	4.72
250.191	4.71
250.567	4.74
250.943	4.7
251.318	4.67
251.694	4.64
252.069	4.65
252.445	4.64
252.82	4.61
253.196	4.58
253.571	4.57
253.947	4.58
254.322	4.56
254.697	4.52
255.073	4.5
255.448	4.51
255.823	4.48
256.198	4.47
256.573	4.46
256.948	4.46
257.323	4.45
257.698	4.43
258.073	4.39
258.448	4.36
258.823	4.36
259.198	4.36
259.573	4.32
259.948	4.31
260.322	4.31
260.697	4.3
261.072	4.28
261.446	4.28
261.821	4.26
262.195	4.26
262.57	4.25
262.944	4.23
263.319	4.24
263.693	4.24
264.067	4.24
264.442	4.22
264.816	4.2
265.19	4.18
265.564	4.17
265.938	4.15
266.313	4.16
266.687	4.15
267.061	4.15
267.435	4.15
267.809	4.13
268.183	4.14
268.556	4.14
268.93	4.13
269.304	4.12
269.678	4.12
270.051	4.11
270.425	4.09
270.799	4.09
271.172	4.11
271.546	4.1
271.919	4.1
272.293	4.1
272.666	4.09
273.04	4.11
273.413	4.13
273.787	4.16
274.16	4.16
274.533	4.15
274.906	4.17
275.279	4.16
275.653	4.17
276.026	4.18
276.399	4.19
276.772	4.19
277.145	4.17
277.518	4.18
277.891	4.17
278.263	4.16
278.636	4.17
279.009	4.15
279.382	4.14
279.755	4.15
280.127	4.16
280.5	4.18
280.872	4.2
281.245	4.19
281.617	4.19
281.99	4.2
282.362	4.2
282.735	4.2
283.107	4.21
283.479	4.21
283.852	4.22
284.224	4.2
284.596	4.21
284.968	4.21
285.34	4.22
285.713	4.24
286.085	4.24
286.457	4.23
286.829	4.22
287.201	4.22
287.572	4.22
287.944	4.21
288.316	4.21
288.688	4.21
289.06	4.21
289.431	4.21
289.803	4.22
290.175	4.23
290.546	4.25
290.918	4.26
291.289	4.25
291.661	4.26
292.032	4.26
292.403	4.27
292.775	4.28
293.146	4.29
293.517	4.32
293.889	4.33
294.26	4.36
294.631	4.38
295.002	4.41
295.373	4.43
295.744	4.44
296.115	4.45
296.486	4.47
296.857	4.5
297.228	4.51
297.599	4.53
297.97	4.55
298.34	4.56
298.711	4.58
299.082	4.59
299.452	4.61
299.823	4.62
300.194	4.65
300.564	4.67
300.935	4.7
301.305	4.73
301.676	4.76
302.046	4.8
302.416	4.81
302.787	4.83
303.157	4.86
303.527	4.89
303.897	4.91
304.267	4.94
304.637	4.97
305.008	4.99
305.378	5.01
305.748	5.03
306.117	5.05
306.487	5.09
306.857	5.13
307.227	5.16
307.597	5.22
307.967	5.25
308.336	5.27
308.706	5.3
309.076	5.31
309.445	5.34
309.815	5.37
310.184	5.39
310.554	5.41
310.923	5.43
311.293	5.45
311.662	5.48
312.031	5.52
312.401	5.55
312.77	5.58
313.139	5.63
313.508	5.66
313.877	5.69
314.246	5.75
314.616	5.77
314.985	5.81
315.353	5.84
315.722	5.85
316.091	5.88
316.46	5.91
316.829	5.94
317.198	5.98
317.567	6.01
317.935	6.05
318.304	6.08
318.672	6.12
319.041	6.16
319.41	6.2
319.778	6.24
320.147	6.28
320.515	6.32
320.883	6.35
321.252	6.39
321.62	6.43
321.988	6.46
322.357	6.49
322.725	6.51
323.093	6.54
323.461	6.58
323.829	6.63
324.197	6.66
324.565	6.66
324.933	6.69
325.301	6.72
325.669	6.74
326.037	6.77
326.405	6.8
326.772	6.82
327.14	6.82
327.508	6.84
327.875	6.86
328.243	6.88
328.61	6.89
328.978	6.91
329.346	6.92
329.713	6.94
330.08	6.96
330.448	6.97
330.815	6.99
331.182	7
331.55	7.02
331.917	7.03
332.284	7.03
332.651	7.06
333.018	7.09
333.385	7.12
333.752	7.14
334.119	7.17
334.486	7.19
334.853	7.21
335.22	7.23
335.587	7.24
335.954	7.27
336.32	7.29
336.687	7.29
337.054	7.31
337.42	7.33
337.787	7.35
338.153	7.37
338.52	7.38
338.886	7.38
339.253	7.41
339.619	7.44
339.986	7.46
340.352	7.48
340.718	7.51
341.084	7.52
341.451	7.54
341.817	7.56
342.183	7.59
342.549	7.62
342.915	7.63
343.281	7.65
343.647	7.68
344.013	7.69
344.379	7.7
344.745	7.72
345.11	7.75
345.476	7.78
345.842	7.81
346.208	7.81
346.573	7.83
346.939	7.84
347.304	7.87
347.67	7.89
348.035	7.92
348.401	7.94
348.766	7.96
349.132	7.96
349.497	7.99
349.862	8.01
350.228	8.03
350.593	8.05
350.958	8.07
351.323	8.09
351.688	8.1
352.053	8.12
352.418	8.13
352.783	8.13
353.148	8.13
353.513	8.15
353.878	8.17
354.243	8.18
354.608	8.19
354.972	8.2
355.337	8.21
355.702	8.22
356.066	8.24
356.431	8.24
356.795	8.24
357.16	8.22
357.524	8.22
357.889	8.23
358.253	8.23
358.618	8.22
358.982	8.22
359.346	8.22
359.71	8.21
360.075	8.21
360.439	8.19
360.803	8.19
361.167	8.19
361.531	8.19
361.895	8.19
362.259	8.18
362.623	8.16
362.987	8.15
363.351	8.15
363.714	8.14
364.078	8.13
364.442	8.11
364.806	8.1
365.169	8.09
365.533	8.08
365.896	8.06
366.26	8.05
366.623	8.04
366.987	8.03
367.35	8.02
367.714	8.01
368.077	8
368.44	7.97
368.803	7.95
369.167	7.93
369.53	7.9
369.893	7.87
370.256	7.84
370.619	7.81
370.982	7.79
371.345	7.77
371.708	7.75
372.071	7.73
372.434	7.71
372.797	7.68
373.159	7.65
373.522	7.63
373.885	7.61
374.247	7.58
374.61	7.56
374.973	7.52
375.335	7.5
375.698	7.46
376.06	7.44
376.423	7.4
376.785	7.38
377.147	7.35
377.51	7.32
377.872	7.3
378.234	7.26
378.596	7.23
378.958	7.21
379.321	7.19
379.683	7.16
380.045	7.13
380.407	7.1
380.769	7.07
381.13	7.04
381.492	7.01
381.854	6.98
382.216	6.95
382.578	6.92
382.939	6.9
383.301	6.87
383.663	6.84
384.024	6.82
384.386	6.79
384.747	6.77
385.109	6.75
385.47	6.72
385.832	6.69
386.193	6.67
386.554	6.64
386.916	6.61
387.277	6.59
387.638	6.57
387.999	6.54
388.36	6.52
388.721	6.5
389.082	6.48
389.443	6.45
389.804	6.43
390.165	6.41
390.526	6.39
390.887	6.37
391.248	6.35
391.609	6.33
391.969	6.32
392.33	6.29
392.691	6.27
393.051	6.24
393.412	6.22
393.772	6.2
394.133	6.18
394.493	6.16
394.854	6.13
395.214	6.11
395.574	6.09
395.935	6.06
396.295	6.04
396.655	6.02
397.015	6
397.376	5.98
397.736	5.95
398.096	5.93
398.456	5.91
398.816	5.89
399.176	5.87
399.535	5.84
399.895	5.82
400.255	5.81
400.615	5.78
400.975	5.76
401.334	5.74
401.694	5.72
402.054	5.7
402.413	5.68
402.773	5.67
403.132	5.65
403.492	5.64
403.851	5.62
404.211	5.61
404.57	5.6
404.929	5.58
405.288	5.57
405.648	5.56
406.007	5.55
406.366	5.53
406.725	5.52
407.084	5.51
407.443	5.5
407.802	5.49
408.161	5.48
408.52	5.47
408.879	5.47
409.238	5.46
409.596	5.45
409.955	5.45
410.314	5.44
410.673	5.43
411.031	5.43
411.39	5.43
411.748	5.42
412.107	5.42
412.465	5.43
412.824	5.45
413.182	5.47
413.54	5.49
413.899	5.52
414.257	5.55
414.615	5.59
414.974	5.61
415.332	5.65
415.69	5.69
416.048	5.73
416.406	5.77
416.764	5.8
417.122	5.83
417.48	5.87
417.838	5.9
418.195	5.92
418.553	5.94
418.911	5.96
419.269	5.96
419.626	5.95
419.984	5.94
420.342	5.91
420.699	5.89
421.057	5.86
421.414	5.83
421.772	5.81
422.129	5.79
422.486	5.78
422.844	5.77
423.201	5.76
423.558	5.75
423.915	5.75
424.273	5.74
424.63	5.73
424.987	5.73
425.344	5.72
425.701	5.71
426.058	5.7
426.415	5.7
426.772	5.69
427.128	5.68
427.485	5.66
427.842	5.64
428.199	5.61
428.555	5.59
428.912	5.55
429.269	5.51
429.625	5.48
429.982	5.44
430.338	5.4
430.695	5.37
431.051	5.32
431.407	5.29
431.764	5.26
432.12	5.23
432.476	5.22
432.832	5.2
433.189	5.2
433.545	5.2
433.901	5.21
434.257	5.24
434.613	5.27
434.969	5.29
435.325	5.33
435.681	5.37
436.036	5.4
436.392	5.43
436.748	5.44
437.104	5.46
437.459	5.48
437.815	5.5
438.171	5.53
438.526	5.56
438.882	5.59
439.237	5.64
439.593	5.68
439.948	5.72
440.304	5.76
440.659	5.8
441.014	5.82
441.369	5.86
441.725	5.88
442.08	5.9
442.435	5.92
442.79	5.92
443.145	5.93
443.5	5.93
443.855	5.93
444.21	5.93
444.565	5.92
444.92	5.91
445.275	5.9
445.629	5.88
445.984	5.87
446.339	5.85
446.693	5.84
447.048	5.81
447.403	5.79
447.757	5.76
448.112	5.73
448.466	5.69
448.82	5.66
449.175	5.63
449.529	5.6
449.883	5.58
450.238	5.54
450.592	5.53
450.946	5.51
451.3	5.51
451.654	5.52
452.008	5.52
452.362	5.52
452.716	5.52
453.07	5.52
453.424	5.51
453.778	5.5
454.132	5.48
454.486	5.47
454.839	5.44
455.193	5.41
455.547	5.4
455.9	5.36
456.254	5.34
456.607	5.3
456.961	5.26
457.314	5.24
457.668	5.22
458.021	5.21
458.375	5.21
458.728	5.2
459.081	5.21
459.434	5.22
459.787	5.23
460.141	5.24
460.494	5.25
460.847	5.26
461.2	5.27
461.553	5.28
461.906	5.29
462.259	5.3
462.611	5.3
462.964	5.31
463.317	5.32
463.67	5.33
464.022	5.35
464.375	5.35
464.728	5.36
465.08	5.37
465.433	5.38
465.785	5.38
466.138	5.36
466.49	5.35
466.843	5.33
467.195	5.3
467.547	5.28
467.899	5.25
468.252	5.22
468.604	5.2
468.956	5.18
469.308	5.17
469.66	5.17
470.012	5.17
470.364	5.18
470.716	5.19
471.068	5.21
471.42	5.24
471.772	5.27
472.123	5.29
472.475	5.31
472.827	5.33
473.178	5.34
473.53	5.36
473.882	5.39
474.233	5.41
474.585	5.46
474.936	5.54
475.288	5.66
475.639	5.81
475.99	5.98
476.342	6.18
476.693	6.39
477.044	6.6
477.395	6.82
477.746	7.04
478.097	7.27
478.448	7.49
478.8	7.71
479.15	7.92
479.501	8.11
479.852	8.28
480.203	8.45
480.554	8.61
480.905	8.75
481.255	8.89
481.606	9.03
481.957	9.16
482.307	9.28
482.658	9.39
483.009	9.5
483.359	9.61
483.709	9.72
484.06	9.81
484.41	9.91
484.761	10
485.111	10.09
485.461	10.18
485.811	10.26
486.162	10.33
486.512	10.4
486.862	10.45
487.212	10.48
487.562	10.5
487.912	10.52
488.262	10.53
488.612	10.52
488.961	10.5
489.311	10.44
489.661	10.35
490.011	10.24
490.36	10.11
490.71	9.95
491.06	9.78
491.409	9.6
491.759	9.42
492.108	9.22
492.458	9.02
492.807	8.82
493.157	8.61
493.506	8.42
493.855	8.24
494.204	8.06
494.554	7.9
494.903	7.75
495.252	7.61
495.601	7.47
495.95	7.34
496.299	7.22
496.648	7.11
496.997	7
497.346	6.9
497.695	6.81
498.043	6.72
498.392	6.64
498.741	6.56
499.09	6.49
499.438	6.42
499.787	6.36
500.135	6.3
500.484	6.25
500.832	6.22
501.181	6.21
501.529	6.22
501.878	6.24
502.226	6.26
502.574	6.3
502.923	6.34
503.271	6.39
503.619	6.43
503.967	6.48
504.315	6.53
504.663	6.58
505.011	6.63
505.359	6.68
505.707	6.73
506.055	6.79
506.403	6.85
506.751	6.91
507.098	6.98
507.446	7.05
507.794	7.13
508.141	7.21
508.489	7.29
508.837	7.39
509.184	7.48
509.531	7.58
509.879	7.68
510.226	7.79
510.574	7.91
510.921	8.03
511.268	8.16
511.616	8.29
511.963	8.43
512.31	8.57
512.657	8.71
513.004	8.85
513.351	8.98
513.698	9.11
514.045	9.22
514.392	9.34
514.739	9.44
515.086	9.54
515.432	9.64
515.779	9.73
516.126	9.83
516.473	9.94
516.819	10.07
517.166	10.2
517.512	10.35
517.859	10.51
518.205	10.69
518.552	10.89
518.898	11.11
519.245	11.35
519.591	11.66
519.937	12.02
520.283	12.43
520.629	12.89
520.976	13.37
521.322	13.87
521.668	14.4
522.014	14.93
522.36	15.45
522.706	15.97
523.052	16.47
523.398	16.95
523.743	17.39
524.089	17.79
524.435	18.16
524.781	18.53
525.126	18.88
525.472	19.23
525.817	19.57
526.163	19.9
526.509	20.23
526.854	20.55
527.199	20.86
527.545	21.18
527.89	21.52
528.235	21.84
528.581	22.16
528.926	22.45
529.271	22.74
529.616	23.01
529.961	23.28
530.306	23.53
530.651	23.77
530.996	23.98
531.341	24.18
531.686	24.36
532.031	24.52
532.376	24.71
532.721	24.91
533.065	25.13
533.41	25.36
533.755	25.57
534.099	25.75
534.444	25.9
534.788	26.04
535.133	26.16
535.477	26.26
535.822	26.34
536.166	26.39
536.51	26.39
536.855	26.36
537.199	26.31
537.543	26.25
537.887	26.22
538.231	26.22
538.576	26.23
538.92	26.22
539.264	26.21
539.608	26.18
539.951	26.14
540.295	26.1
540.639	26.05
540.983	25.98
541.327	25.9
541.671	25.81
542.014	25.74
542.358	25.68
542.701	25.68
543.045	25.73
543.389	25.81
543.732	25.9
544.075	26.01
544.419	26.13
544.762	26.25
545.105	26.39
545.449	26.54
545.792	26.7
546.135	26.86
546.478	26.99
546.821	27.09
547.165	27.15
547.508	27.17
547.851	27.15
548.194	27.1
548.536	27.01
548.879	26.9
549.222	26.77
549.565	26.65
549.908	26.52
550.25	26.42
550.593	26.37
550.936	26.37
551.278	26.41
551.621	26.48
551.963	26.57
552.306	26.67
552.648	26.81
552.991	26.96
553.333	27.14
553.675	27.34
554.017	27.57
554.36	27.82
554.702	28.09
555.044	28.4
555.386	28.75
555.728	29.12
556.07	29.47
556.412	29.81
556.754	30.1
557.096	30.34
557.438	30.59
557.78	30.84
558.121	31.09
558.463	31.35
558.805	31.6
559.147	31.87
559.488	32.12
559.83	32.37
560.171	32.62
560.513	32.88
560.854	33.12
561.196	33.37
561.537	33.61
561.878	33.85
562.22	34.08
562.561	34.3
562.902	34.53
563.243	34.76
563.584	34.99
563.925	35.22
564.266	35.44
564.607	35.66
564.948	35.88
565.289	36.1
565.63	36.32
565.971	36.53
566.312	36.75
566.653	36.95
566.993	37.16
567.334	37.35
567.675	37.56
568.015	37.74
568.356	37.93
568.696	38.12
569.037	38.31
569.377	38.49
569.718	38.66
570.058	38.82
570.398	38.98
570.739	39.14
571.079	39.29
571.419	39.43
571.759	39.58
572.099	39.72
572.439	39.86
572.779	39.99
573.119	40.12
573.459	40.25
573.799	40.38
574.139	40.51
574.479	40.63
574.819	40.76
575.158	40.88
575.498	41
575.838	41.11
576.177	41.24
576.517	41.36
576.856	41.48
577.196	41.6
577.535	41.7
577.875	41.81
578.214	41.93
578.553	42.04
578.893	42.15
579.232	42.26
579.571	42.36
579.91	42.47
580.25	42.57
580.589	42.68
580.928	42.79
581.267	42.9
581.606	43.01
581.945	43.13
582.283	43.23
582.622	43.35
582.961	43.45
583.3	43.55
583.639	43.65
583.977	43.76
584.316	43.86
584.654	43.96
584.993	44.07
585.332	44.18
585.67	44.29
586.008	44.37
586.347	44.48
586.685	44.58
587.024	44.69
587.362	44.79
587.7	44.9
588.038	45.01
588.376	45.11
588.715	45.23
589.053	45.34
589.391	45.44
589.729	45.54
590.067	45.65
590.404	45.75
590.742	45.85
591.08	45.95
591.418	46.05
591.756	46.13
592.093	46.22
592.431	46.3
592.769	46.39
593.106	46.46
593.444	46.53
593.781	46.6
594.119	46.66
594.456	46.74
594.793	46.81
595.131	46.87
595.468	46.95
595.805	47.02
596.143	47.1
596.48	47.17
596.817	47.26
597.154	47.34
597.491	47.43
597.828	47.51
598.165	47.61
598.502	47.69
598.839	47.76
599.176	47.83
599.512	47.89
599.849	47.97
600.186	48.02
600.523	48.08
600.859	48.13
601.196	48.19
601.532	48.26
601.869	48.32
602.205	48.37
602.542	48.43
602.878	48.49
603.215	48.55
603.551	48.6
603.887	48.65
604.223	48.7
604.56	48.75
604.896	48.79
605.232	48.83
605.568	48.88
605.904	48.91
606.24	48.95
606.576	48.99
606.912	49.03
607.248	49.07
607.583	49.11
607.919	49.15
608.255	49.2
608.591	49.23
608.926	49.27
609.262	49.29
609.597	49.33
609.933	49.36
610.268	49.39
610.604	49.42
610.939	49.45
611.275	49.48
611.61	49.5
611.945	49.51
612.281	49.51
612.616	49.53
612.951	49.56
613.286	49.58
613.621	49.6
613.956	49.64
614.291	49.68
614.626	49.71
614.961	49.74
615.296	49.77
615.631	49.79
615.966	49.82
616.3	49.84
616.635	49.86
616.97	49.88
617.304	49.91
617.639	49.92
617.973	49.95
618.308	49.98
618.642	50.02
618.977	50.07
619.311	50.11
619.646	50.16
619.98	50.19
620.314	50.24
620.648	50.28
620.983	50.33
621.317	50.37
621.651	50.42
621.985	50.45
622.319	50.5
622.653	50.53
622.987	50.57
623.321	50.59
623.655	50.63
623.988	50.66
624.322	50.7
624.656	50.72
624.99	50.76
625.323	50.79
625.657	50.83
625.99	50.87
626.324	50.91
626.657	50.96
626.991	50.99
627.324	51.02
627.658	51.04
627.991	51.07
628.324	51.1
628.657	51.12
628.991	51.14
629.324	51.17
629.657	51.2
629.99	51.24
630.323	51.27
630.656	51.3
630.989	51.33
631.322	51.35
631.655	51.38
631.987	51.4
632.32	51.42
632.653	51.44
632.986	51.47
633.318	51.49
633.651	51.52
633.984	51.54
634.316	51.55
634.649	51.58
634.981	51.59
635.313	51.61
635.646	51.63
635.978	51.64
636.31	51.67
636.643	51.69
636.975	51.72
637.307	51.73
637.639	51.75
637.971	51.76
638.303	51.78
638.635	51.79
638.967	51.82
639.299	51.84
639.631	51.86
639.963	51.87
640.295	51.89
640.626	51.92
640.958	51.96
641.29	51.99
641.621	52.02
641.953	52.03
642.285	52.07
642.616	52.1
642.948	52.1
643.279	52.13
643.61	52.14
643.942	52.15
644.273	52.18
644.604	52.21
644.936	52.25
645.267	52.25
645.598	52.26
645.929	52.29
646.26	52.31
646.591	52.34
646.922	52.35
647.253	52.39
647.584	52.42
647.915	52.46
648.245	52.47
648.576	52.49
648.907	52.52
649.238	52.54
649.568	52.58
649.899	52.6
650.229	52.63
650.56	52.66
650.89	52.69
651.221	52.71
651.551	52.74
651.882	52.77
652.212	52.8
652.542	52.83
652.872	52.84
653.203	52.86
653.533	52.87
653.863	52.87
654.193	52.9
654.523	52.91
654.853	52.94
655.183	52.96
655.513	52.98
655.843	52.98
656.172	52.99
656.502	53.02
656.832	53.04
657.162	53.05
657.491	53.06
657.821	53.06
658.15	53.07
658.48	53.09
658.809	53.1
659.139	53.13
659.468	53.14
659.798	53.17
660.127	53.18
660.456	53.19
660.785	53.19
661.115	53.21
661.444	53.21
661.773	53.22
662.102	53.25
662.431	53.26
662.76	53.29
663.089	53.29
663.418	53.31
663.747	53.33
664.076	53.36
664.404	53.39
664.733	53.4
665.062	53.42
665.39	53.43
665.719	53.44
666.048	53.44
666.376	53.48
666.705	53.5
667.033	53.53
667.362	53.57
667.69	53.58
668.018	53.58
668.347	53.58
668.675	53.57
669.003	53.6
669.331	53.63
669.659	53.65
