Data from UWBM55954_Reflection_00013.txt Node
Date: Sun May 02 13:52:08 EDT 2021
User: vgr7
Spectrometer: USB2G7710
Scans to average: 10
Trigger mode: 4
Integration Time (sec): 1.000000E-1
Electric dark correction enabled: true
Boxcar width: 20
XAxis mode: Wavelengths
Number of Pixels in Spectrum: 2048
>>>>>Begin Spectral Data<<<<<
177.721	108.95
178.105	128.8
178.488	103.58
178.871	126.92
179.254	91.42
179.636	69.3
180.019	60.25
180.402	57.47
180.785	42.68
181.168	41.65
181.55	37
181.933	40.47
182.316	32.91
182.698	34.93
183.081	28.01
183.463	20
183.846	16.3
184.228	16.92
184.611	15.66
184.993	16.55
185.376	17.8
185.758	18.71
186.14	23.51
186.522	23.61
186.904	26.24
187.287	25.25
187.669	24.75
188.051	20.6
188.433	21.94
188.815	18.66
189.197	18.25
189.579	18.53
189.961	18.91
190.342	18.22
190.724	18.92
191.106	20.92
191.488	19.16
191.869	17.4
192.251	16.18
192.633	16.28
193.014	15.89
193.396	12.11
193.777	13.73
194.159	12.87
194.54	12.43
194.922	11.45
195.303	10.15
195.684	9.35
196.065	8.88
196.447	10.74
196.828	8.89
197.209	8.67
197.59	5.18
197.971	5.53
198.352	5.68
198.733	8.68
199.114	11.74
199.495	12.62
199.876	12.23
200.257	11.55
200.638	10.15
201.018	11.19
201.399	12.72
201.78	10.88
202.16	10.11
202.541	9.55
202.922	8.53
203.302	9.7
203.683	11.44
204.063	11.66
204.444	11.13
204.824	11.44
205.204	9.6
205.585	10.12
205.965	10.11
206.345	10.54
206.725	10.14
207.106	10.12
207.486	10.79
207.866	11
208.246	10.44
208.626	11.05
209.006	11.61
209.386	10.24
209.766	9.6
210.145	8.03
210.525	9.35
210.905	11.34
211.285	9.51
211.664	9.25
212.044	7.77
212.424	8.39
212.803	7.82
213.183	8.58
213.562	9.33
213.942	7.04
214.321	6.17
214.701	3.56
215.08	3.19
215.459	2.87
215.838	2.72
216.218	3.06
216.597	1.73
216.976	2.06
217.355	3.08
217.734	4.76
218.113	4.8
218.492	4.05
218.871	3.04
219.25	3.73
219.629	3.27
220.008	3.53
220.387	3.58
220.766	5.01
221.144	3.76
221.523	4.3
221.902	4.5
222.28	4.25
222.659	4.52
223.037	3.91
223.416	4.25
223.794	4.63
224.173	4.79
224.551	4.79
224.929	5.68
225.308	5.95
225.686	6.09
226.064	6.08
226.442	5.67
226.821	6.53
227.199	6.58
227.577	7.05
227.955	7.1
228.333	7.32
228.711	7.1
229.089	6.58
229.467	6.86
229.845	6.54
230.222	7.13
230.6	7.57
230.978	7.5
231.356	7.83
231.733	7.83
232.111	7.95
232.488	7.73
232.866	7.42
233.243	7.26
233.621	7.17
233.998	7.29
234.376	7.28
234.753	6.99
235.13	6.87
235.508	6.87
235.885	6.68
236.262	6.55
236.639	6.51
237.016	6.45
237.393	6.39
237.77	6.32
238.147	6.25
238.524	6.31
238.901	6.23
239.278	6.27
239.655	6.27
240.032	6.22
240.409	6.2
240.785	6.28
241.162	6.31
241.539	6.23
241.915	6.3
242.292	6.29
242.668	6.25
243.045	6.19
243.421	6.16
243.798	6.15
244.174	6.2
244.551	6.18
244.927	6.18
245.303	6.2
245.679	6.18
246.056	6.1
246.432	6.08
246.808	6.03
247.184	6.06
247.56	6.03
247.936	5.98
248.312	5.96
248.688	5.92
249.064	5.89
249.44	5.89
249.815	5.88
250.191	5.83
250.567	5.86
250.943	5.84
251.318	5.81
251.694	5.82
252.069	5.79
252.445	5.74
252.82	5.69
253.196	5.66
253.571	5.62
253.947	5.61
254.322	5.59
254.697	5.53
255.073	5.51
255.448	5.51
255.823	5.45
256.198	5.4
256.573	5.36
256.948	5.36
257.323	5.3
257.698	5.25
258.073	5.22
258.448	5.21
258.823	5.19
259.198	5.16
259.573	5.12
259.948	5.14
260.322	5.13
260.697	5.1
261.072	5.09
261.446	5.08
261.821	5.08
262.195	5.08
262.57	5.05
262.944	5.04
263.319	5.06
263.693	5.06
264.067	5.06
264.442	5.05
264.816	5.02
265.19	5.01
265.564	5.02
265.938	4.99
266.313	4.99
266.687	4.99
267.061	4.96
267.435	4.98
267.809	4.98
268.183	4.99
268.556	4.99
268.93	4.99
269.304	4.99
269.678	5
270.051	5
270.425	4.96
270.799	4.95
271.172	4.96
271.546	4.95
271.919	4.95
272.293	4.93
272.666	4.94
273.04	4.95
273.413	4.99
273.787	5.01
274.16	5.02
274.533	5.02
274.906	5.02
275.279	5.02
275.653	5.02
276.026	5.04
276.399	5.04
276.772	5.07
277.145	5.05
277.518	5.06
277.891	5.06
278.263	5.07
278.636	5.06
279.009	5.06
279.382	5.05
279.755	5.08
280.127	5.09
280.5	5.1
280.872	5.12
281.245	5.12
281.617	5.14
281.99	5.15
282.362	5.15
282.735	5.13
283.107	5.15
283.479	5.14
283.852	5.15
284.224	5.16
284.596	5.16
284.968	5.15
285.34	5.16
285.713	5.18
286.085	5.2
286.457	5.22
286.829	5.24
287.201	5.25
287.572	5.27
287.944	5.28
288.316	5.29
288.688	5.27
289.06	5.28
289.431	5.29
289.803	5.31
290.175	5.33
290.546	5.35
290.918	5.38
291.289	5.39
291.661	5.41
292.032	5.41
292.403	5.44
292.775	5.47
293.146	5.49
293.517	5.51
293.889	5.55
294.26	5.58
294.631	5.62
295.002	5.65
295.373	5.68
295.744	5.71
296.115	5.73
296.486	5.77
296.857	5.8
297.228	5.82
297.599	5.86
297.97	5.89
298.34	5.91
298.711	5.95
299.082	5.98
299.452	6
299.823	6.03
300.194	6.06
300.564	6.09
300.935	6.12
301.305	6.14
301.676	6.15
302.046	6.17
302.416	6.19
302.787	6.22
303.157	6.24
303.527	6.28
303.897	6.32
304.267	6.34
304.637	6.38
305.008	6.42
305.378	6.46
305.748	6.49
306.117	6.5
306.487	6.55
306.857	6.6
307.227	6.64
307.597	6.67
307.967	6.68
308.336	6.73
308.706	6.75
309.076	6.76
309.445	6.79
309.815	6.8
310.184	6.82
310.554	6.84
310.923	6.87
311.293	6.89
311.662	6.89
312.031	6.92
312.401	6.96
312.77	7
313.139	7.03
313.508	7.07
313.877	7.09
314.246	7.13
314.616	7.16
314.985	7.19
315.353	7.21
315.722	7.23
316.091	7.26
316.46	7.29
316.829	7.32
317.198	7.36
317.567	7.39
317.935	7.44
318.304	7.45
318.672	7.48
319.041	7.52
319.41	7.56
319.778	7.6
320.147	7.61
320.515	7.64
320.883	7.68
321.252	7.71
321.62	7.74
321.988	7.77
322.357	7.78
322.725	7.81
323.093	7.82
323.461	7.83
323.829	7.86
324.197	7.88
324.565	7.88
324.933	7.91
325.301	7.92
325.669	7.93
326.037	7.94
326.405	7.97
326.772	7.99
327.14	8
327.508	7.99
327.875	8
328.243	8.01
328.61	8.02
328.978	8.03
329.346	8.04
329.713	8.06
330.08	8.08
330.448	8.08
330.815	8.09
331.182	8.09
331.55	8.11
331.917	8.11
332.284	8.11
332.651	8.14
333.018	8.15
333.385	8.18
333.752	8.19
334.119	8.19
334.486	8.2
334.853	8.21
335.22	8.23
335.587	8.25
335.954	8.26
336.32	8.27
336.687	8.26
337.054	8.26
337.42	8.28
337.787	8.31
338.153	8.33
338.52	8.33
338.886	8.34
339.253	8.35
339.619	8.38
339.986	8.39
340.352	8.39
340.718	8.4
341.084	8.4
341.451	8.41
341.817	8.42
342.183	8.43
342.549	8.44
342.915	8.44
343.281	8.44
343.647	8.45
344.013	8.44
344.379	8.45
344.745	8.46
345.11	8.47
345.476	8.49
345.842	8.5
346.208	8.52
346.573	8.52
346.939	8.54
347.304	8.55
347.67	8.54
348.035	8.55
348.401	8.55
348.766	8.56
349.132	8.58
349.497	8.59
349.862	8.6
350.228	8.6
350.593	8.6
350.958	8.6
351.323	8.6
351.688	8.61
352.053	8.61
352.418	8.6
352.783	8.58
353.148	8.57
353.513	8.58
353.878	8.57
354.243	8.57
354.608	8.55
354.972	8.55
355.337	8.55
355.702	8.55
356.066	8.54
356.431	8.53
356.795	8.52
357.16	8.5
357.524	8.5
357.889	8.5
358.253	8.49
358.618	8.48
358.982	8.48
359.346	8.47
359.71	8.44
360.075	8.44
360.439	8.42
360.803	8.4
361.167	8.39
361.531	8.38
361.895	8.36
362.259	8.35
362.623	8.34
362.987	8.33
363.351	8.31
363.714	8.29
364.078	8.26
364.442	8.24
364.806	8.22
365.169	8.19
365.533	8.17
365.896	8.15
366.26	8.14
366.623	8.12
366.987	8.1
367.35	8.08
367.714	8.06
368.077	8.04
368.44	8.01
368.803	7.98
369.167	7.96
369.53	7.92
369.893	7.88
370.256	7.85
370.619	7.82
370.982	7.79
371.345	7.76
371.708	7.73
372.071	7.7
372.434	7.67
372.797	7.64
373.159	7.6
373.522	7.57
373.885	7.54
374.247	7.51
374.61	7.48
374.973	7.44
375.335	7.41
375.698	7.37
376.06	7.34
376.423	7.3
376.785	7.27
377.147	7.23
377.51	7.2
377.872	7.16
378.234	7.13
378.596	7.1
378.958	7.06
379.321	7.03
379.683	7
380.045	6.97
380.407	6.95
380.769	6.91
381.13	6.88
381.492	6.84
381.854	6.81
382.216	6.77
382.578	6.74
382.939	6.72
383.301	6.69
383.663	6.66
384.024	6.63
384.386	6.61
384.747	6.59
385.109	6.57
385.47	6.54
385.832	6.5
386.193	6.47
386.554	6.44
386.916	6.42
387.277	6.39
387.638	6.37
387.999	6.35
388.36	6.32
388.721	6.3
389.082	6.27
389.443	6.25
389.804	6.23
390.165	6.22
390.526	6.19
390.887	6.17
391.248	6.15
391.609	6.13
391.969	6.11
392.33	6.09
392.691	6.06
393.051	6.04
393.412	6.02
393.772	6
394.133	5.97
394.493	5.95
394.854	5.92
395.214	5.9
395.574	5.88
395.935	5.85
396.295	5.83
396.655	5.81
397.015	5.78
397.376	5.76
397.736	5.73
398.096	5.71
398.456	5.68
398.816	5.66
399.176	5.63
399.535	5.61
399.895	5.58
400.255	5.56
400.615	5.55
400.975	5.53
401.334	5.51
401.694	5.49
402.054	5.47
402.413	5.45
402.773	5.42
403.132	5.41
403.492	5.39
403.851	5.38
404.211	5.37
404.57	5.35
404.929	5.33
405.288	5.32
405.648	5.31
406.007	5.3
406.366	5.29
406.725	5.27
407.084	5.26
407.443	5.26
407.802	5.24
408.161	5.23
408.52	5.23
408.879	5.22
409.238	5.22
409.596	5.21
409.955	5.2
410.314	5.19
410.673	5.19
411.031	5.19
411.39	5.18
411.748	5.18
412.107	5.18
412.465	5.18
412.824	5.2
413.182	5.22
413.54	5.24
413.899	5.27
414.257	5.3
414.615	5.34
414.974	5.37
415.332	5.41
415.69	5.45
416.048	5.48
416.406	5.52
416.764	5.55
417.122	5.58
417.48	5.62
417.838	5.65
418.195	5.67
418.553	5.69
418.911	5.7
419.269	5.71
419.626	5.7
419.984	5.68
420.342	5.66
420.699	5.64
421.057	5.6
421.414	5.58
421.772	5.56
422.129	5.54
422.486	5.53
422.844	5.53
423.201	5.52
423.558	5.51
423.915	5.5
424.273	5.5
424.63	5.49
424.987	5.49
425.344	5.48
425.701	5.48
426.058	5.47
426.415	5.47
426.772	5.47
427.128	5.46
427.485	5.44
427.842	5.43
428.199	5.4
428.555	5.38
428.912	5.35
429.269	5.32
429.625	5.29
429.982	5.25
430.338	5.21
430.695	5.18
431.051	5.14
431.407	5.11
431.764	5.09
432.12	5.07
432.476	5.05
432.832	5.04
433.189	5.04
433.545	5.04
433.901	5.06
434.257	5.09
434.613	5.12
434.969	5.15
435.325	5.18
435.681	5.23
436.036	5.26
436.392	5.28
436.748	5.31
437.104	5.32
437.459	5.35
437.815	5.37
438.171	5.4
438.526	5.43
438.882	5.47
439.237	5.52
439.593	5.56
439.948	5.6
440.304	5.65
440.659	5.68
441.014	5.7
441.369	5.73
441.725	5.76
442.08	5.77
442.435	5.79
442.79	5.8
443.145	5.8
443.5	5.8
443.855	5.8
444.21	5.79
444.565	5.79
444.92	5.78
445.275	5.77
445.629	5.76
445.984	5.74
446.339	5.73
446.693	5.71
447.048	5.69
447.403	5.67
447.757	5.63
448.112	5.61
448.466	5.58
448.82	5.54
449.175	5.51
449.529	5.49
449.883	5.47
450.238	5.43
450.592	5.43
450.946	5.41
451.3	5.41
451.654	5.42
452.008	5.41
452.362	5.42
452.716	5.41
453.07	5.41
453.424	5.4
453.778	5.39
454.132	5.37
454.486	5.36
454.839	5.34
455.193	5.31
455.547	5.29
455.9	5.26
456.254	5.24
456.607	5.2
456.961	5.17
457.314	5.14
457.668	5.13
458.021	5.13
458.375	5.12
458.728	5.13
459.081	5.13
459.434	5.14
459.787	5.16
460.141	5.17
460.494	5.18
460.847	5.2
461.2	5.2
461.553	5.21
461.906	5.22
462.259	5.23
462.611	5.24
462.964	5.25
463.317	5.26
463.67	5.28
464.022	5.29
464.375	5.3
464.728	5.31
465.08	5.32
465.433	5.33
465.785	5.33
466.138	5.32
466.49	5.3
466.843	5.29
467.195	5.27
467.547	5.25
467.899	5.23
468.252	5.2
468.604	5.18
468.956	5.16
469.308	5.14
469.66	5.15
470.012	5.15
470.364	5.16
470.716	5.17
471.068	5.2
471.42	5.23
471.772	5.26
472.123	5.28
472.475	5.3
472.827	5.31
473.178	5.33
473.53	5.35
473.882	5.36
474.233	5.39
474.585	5.44
474.936	5.52
475.288	5.63
475.639	5.78
475.99	5.95
476.342	6.14
476.693	6.34
477.044	6.55
477.395	6.76
477.746	6.98
478.097	7.19
478.448	7.41
478.8	7.63
479.15	7.82
479.501	8.01
479.852	8.17
480.203	8.33
480.554	8.49
480.905	8.63
481.255	8.76
481.606	8.9
481.957	9.02
482.307	9.14
482.658	9.25
483.009	9.35
483.359	9.46
483.709	9.56
484.06	9.65
484.41	9.75
484.761	9.84
485.111	9.93
485.461	10.01
485.811	10.08
486.162	10.15
486.512	10.21
486.862	10.26
487.212	10.29
487.562	10.31
487.912	10.33
488.262	10.34
488.612	10.33
488.961	10.31
489.311	10.26
489.661	10.18
490.011	10.07
490.36	9.94
490.71	9.79
491.06	9.63
491.409	9.46
491.759	9.28
492.108	9.1
492.458	8.91
492.807	8.7
493.157	8.51
493.506	8.32
493.855	8.14
494.204	7.98
494.554	7.82
494.903	7.68
495.252	7.55
495.601	7.42
495.95	7.3
496.299	7.19
496.648	7.09
496.997	6.99
497.346	6.9
497.695	6.82
498.043	6.74
498.392	6.66
498.741	6.59
499.09	6.53
499.438	6.47
499.787	6.42
500.135	6.38
500.484	6.35
500.832	6.33
501.181	6.32
501.529	6.34
501.878	6.38
502.226	6.41
502.574	6.46
502.923	6.51
503.271	6.57
503.619	6.63
503.967	6.69
504.315	6.74
504.663	6.8
505.011	6.86
505.359	6.92
505.707	6.98
506.055	7.05
506.403	7.12
506.751	7.19
507.098	7.27
507.446	7.35
507.794	7.43
508.141	7.53
508.489	7.62
508.837	7.73
509.184	7.83
509.531	7.93
509.879	8.03
510.226	8.15
510.574	8.27
510.921	8.39
511.268	8.52
511.616	8.65
511.963	8.79
512.31	8.93
512.657	9.07
513.004	9.2
513.351	9.32
513.698	9.44
514.045	9.55
514.392	9.65
514.739	9.74
515.086	9.82
515.432	9.91
515.779	9.99
516.126	10.07
516.473	10.18
516.819	10.29
517.166	10.41
517.512	10.54
517.859	10.68
518.205	10.84
518.552	11.01
518.898	11.2
519.245	11.42
519.591	11.7
519.937	12.03
520.283	12.41
520.629	12.83
520.976	13.27
521.322	13.73
521.668	14.2
522.014	14.68
522.36	15.16
522.706	15.63
523.052	16.09
523.398	16.51
523.743	16.91
524.089	17.27
524.435	17.59
524.781	17.92
525.126	18.23
525.472	18.54
525.817	18.85
526.163	19.14
526.509	19.43
526.854	19.72
527.199	20
527.545	20.29
527.89	20.59
528.235	20.89
528.581	21.16
528.926	21.43
529.271	21.69
529.616	21.93
529.961	22.17
530.306	22.39
530.651	22.59
530.996	22.77
531.341	22.93
531.686	23.09
532.031	23.24
532.376	23.4
532.721	23.59
533.065	23.79
533.41	24.01
533.755	24.19
534.099	24.35
534.444	24.49
534.788	24.61
535.133	24.72
535.477	24.8
535.822	24.87
536.166	24.92
536.51	24.92
536.855	24.88
537.199	24.82
537.543	24.76
537.887	24.73
538.231	24.73
538.576	24.73
538.92	24.72
539.264	24.71
539.608	24.68
539.951	24.63
540.295	24.58
540.639	24.53
540.983	24.46
541.327	24.37
541.671	24.29
542.014	24.22
542.358	24.16
542.701	24.17
543.045	24.21
543.389	24.28
543.732	24.36
544.075	24.46
544.419	24.57
544.762	24.69
545.105	24.81
545.449	24.96
545.792	25.1
546.135	25.24
546.478	25.36
546.821	25.44
547.165	25.48
547.508	25.48
547.851	25.44
548.194	25.38
548.536	25.28
548.879	25.16
549.222	25.03
549.565	24.9
549.908	24.76
550.25	24.64
550.593	24.57
550.936	24.55
551.278	24.57
551.621	24.62
551.963	24.68
552.306	24.76
552.648	24.86
552.991	24.98
553.333	25.11
553.675	25.28
554.017	25.47
554.36	25.67
554.702	25.89
555.044	26.15
555.386	26.44
555.728	26.75
556.07	27.02
556.412	27.31
556.754	27.53
557.096	27.72
557.438	27.91
557.78	28.11
558.121	28.3
558.463	28.49
558.805	28.68
559.147	28.89
559.488	29.07
559.83	29.27
560.171	29.45
560.513	29.64
560.854	29.82
561.196	30.01
561.537	30.18
561.878	30.35
562.22	30.52
562.561	30.69
562.902	30.85
563.243	31.01
563.584	31.18
563.925	31.35
564.266	31.51
564.607	31.67
564.948	31.84
565.289	31.99
565.63	32.15
565.971	32.31
566.312	32.47
566.653	32.62
566.993	32.76
567.334	32.91
567.675	33.04
568.015	33.18
568.356	33.32
568.696	33.45
569.037	33.58
569.377	33.71
569.718	33.83
570.058	33.96
570.398	34.08
570.739	34.19
571.079	34.3
571.419	34.4
571.759	34.5
572.099	34.6
572.439	34.7
572.779	34.79
573.119	34.88
573.459	34.97
573.799	35.06
574.139	35.16
574.479	35.26
574.819	35.35
575.158	35.43
575.498	35.53
575.838	35.62
576.177	35.7
576.517	35.79
576.856	35.88
577.196	35.97
577.535	36.06
577.875	36.14
578.214	36.22
578.553	36.3
578.893	36.39
579.232	36.47
579.571	36.55
579.91	36.63
580.25	36.71
580.589	36.79
580.928	36.88
581.267	36.97
581.606	37.07
581.945	37.15
582.283	37.24
582.622	37.34
582.961	37.42
583.3	37.51
583.639	37.61
583.977	37.69
584.316	37.77
584.654	37.85
584.993	37.95
585.332	38.05
585.67	38.13
586.008	38.21
586.347	38.3
586.685	38.39
587.024	38.48
587.362	38.57
587.7	38.66
588.038	38.76
588.376	38.85
588.715	38.96
589.053	39.05
589.391	39.15
589.729	39.25
590.067	39.35
590.404	39.44
590.742	39.54
591.08	39.62
591.418	39.7
591.756	39.79
592.093	39.88
592.431	39.95
592.769	40.02
593.106	40.09
593.444	40.16
593.781	40.23
594.119	40.3
594.456	40.36
594.793	40.43
595.131	40.5
595.468	40.57
595.805	40.66
596.143	40.73
596.48	40.8
596.817	40.88
597.154	40.97
597.491	41.05
597.828	41.14
598.165	41.23
598.502	41.31
598.839	41.38
599.176	41.45
599.512	41.53
599.849	41.61
600.186	41.66
600.523	41.72
600.859	41.79
601.196	41.84
601.532	41.9
601.869	41.96
602.205	42.02
602.542	42.07
602.878	42.13
603.215	42.19
603.551	42.24
603.887	42.3
604.223	42.35
604.56	42.41
604.896	42.46
605.232	42.51
605.568	42.56
605.904	42.61
606.24	42.66
606.576	42.71
606.912	42.75
607.248	42.8
607.583	42.84
607.919	42.88
608.255	42.93
608.591	42.96
608.926	43.01
609.262	43.04
609.597	43.08
609.933	43.11
610.268	43.16
610.604	43.2
610.939	43.22
611.275	43.25
611.61	43.28
611.945	43.3
612.281	43.34
612.616	43.37
612.951	43.4
613.286	43.43
613.621	43.47
613.956	43.52
614.291	43.55
614.626	43.59
614.961	43.64
615.296	43.68
615.631	43.72
615.966	43.75
616.3	43.8
616.635	43.85
616.97	43.88
617.304	43.92
617.639	43.95
617.973	43.99
618.308	44.02
618.642	44.06
618.977	44.11
619.311	44.15
619.646	44.2
619.98	44.26
620.314	44.3
620.648	44.36
620.983	44.39
621.317	44.43
621.651	44.47
621.985	44.51
622.319	44.57
622.653	44.6
622.987	44.63
623.321	44.66
623.655	44.7
623.988	44.73
624.322	44.76
624.656	44.81
624.99	44.84
625.323	44.87
625.657	44.92
625.99	44.94
626.324	44.97
626.657	45.01
626.991	45.05
627.324	45.08
627.658	45.12
627.991	45.16
628.324	45.19
628.657	45.23
628.991	45.27
629.324	45.3
629.657	45.34
629.99	45.37
630.323	45.4
630.656	45.44
630.989	45.46
631.322	45.5
631.655	45.54
631.987	45.58
632.32	45.62
632.653	45.65
632.986	45.69
633.318	45.71
633.651	45.74
633.984	45.77
634.316	45.81
634.649	45.85
634.981	45.88
635.313	45.93
635.646	45.97
635.978	45.99
636.31	46.03
636.643	46.08
636.975	46.13
637.307	46.17
637.639	46.21
637.971	46.24
638.303	46.27
638.635	46.31
638.967	46.35
639.299	46.4
639.631	46.44
639.963	46.49
640.295	46.53
640.626	46.57
640.958	46.6
641.29	46.64
641.621	46.69
641.953	46.72
642.285	46.77
642.616	46.81
642.948	46.86
643.279	46.91
643.61	46.96
643.942	47
644.273	47.05
644.604	47.09
644.936	47.13
645.267	47.16
645.598	47.21
645.929	47.26
646.26	47.3
646.591	47.35
646.922	47.38
647.253	47.43
647.584	47.47
647.915	47.5
648.245	47.55
648.576	47.61
648.907	47.65
649.238	47.68
649.568	47.74
649.899	47.78
650.229	47.83
650.56	47.88
650.89	47.92
651.221	47.97
651.551	48.01
651.882	48.06
652.212	48.11
652.542	48.15
652.872	48.19
653.203	48.25
653.533	48.29
653.863	48.33
654.193	48.37
654.523	48.42
654.853	48.46
655.183	48.49
655.513	48.54
655.843	48.58
656.172	48.62
656.502	48.65
656.832	48.69
657.162	48.72
657.491	48.76
657.821	48.79
658.15	48.83
658.48	48.87
658.809	48.91
659.139	48.95
659.468	48.99
659.798	49.04
660.127	49.07
660.456	49.12
660.785	49.15
661.115	49.19
661.444	49.24
661.773	49.28
662.102	49.31
662.431	49.34
662.76	49.39
663.089	49.43
663.418	49.49
663.747	49.52
664.076	49.54
664.404	49.59
664.733	49.63
665.062	49.69
665.39	49.74
665.719	49.78
666.048	49.83
666.376	49.88
666.705	49.92
667.033	49.96
667.362	50
667.69	50.05
668.018	50.11
668.347	50.16
668.675	50.22
669.003	50.27
669.331	50.33
669.659	50.38
669.987	50.44
670.315	50.48
670.643	50.53
670.971	50.59
