Data from UWBM48344_Reflection_00009.txt Node
Date: Sun May 02 14:01:19 EDT 2021
User: vgr7
Spectrometer: USB2G7710
Scans to average: 10
Trigger mode: 4
Integration Time (sec): 1.000000E-1
Electric dark correction enabled: true
Boxcar width: 20
XAxis mode: Wavelengths
Number of Pixels in Spectrum: 2048
>>>>>Begin Spectral Data<<<<<
177.721	272.22
178.105	1088.89
178.488	531.48
178.871	300
179.254	170.72
179.636	109.6
180.019	90.1
180.402	79.68
180.785	69.28
181.168	57.32
181.55	52.44
181.933	58
182.316	47.96
182.698	42.68
183.081	39.44
183.463	36.55
183.846	37.31
184.228	37.74
184.611	37.64
184.993	36.92
185.376	34.34
185.758	35.68
186.14	39.78
186.522	35.04
186.904	34.77
187.287	32.42
187.669	31.99
188.051	32.77
188.433	31.37
188.815	28.18
189.197	27.49
189.579	27.51
189.961	23.13
190.342	21.31
190.724	21.59
191.106	23.5
191.488	23.67
191.869	20.58
192.251	18.88
192.633	16.2
193.014	18.64
193.396	16.64
193.777	14.16
194.159	12.97
194.54	13.17
194.922	11.8
195.303	9.91
195.684	9.4
196.065	8.91
196.447	9.46
196.828	9.46
197.209	8.42
197.59	5.45
197.971	6.51
198.352	6.99
198.733	7.31
199.114	8.24
199.495	8.01
199.876	7.76
200.257	8.19
200.638	7.16
201.018	8.13
201.399	8.41
201.78	7
202.16	6.57
202.541	5.56
202.922	5.81
203.302	6.65
203.683	6.01
204.063	6.58
204.444	6.08
204.824	6.42
205.204	5.06
205.585	8.72
205.965	10.79
206.345	10.61
206.725	9.72
207.106	9.33
207.486	11.42
207.866	12.53
208.246	11.46
208.626	10.13
209.006	9.75
209.386	9.99
209.766	10.87
210.145	8.95
210.525	9.23
210.905	11.88
211.285	10.6
211.664	12.03
212.044	11.27
212.424	9.94
212.803	9.95
213.183	10.21
213.562	10.7
213.942	11.33
214.321	10.62
214.701	9.67
215.08	10.15
215.459	9.31
215.838	8.1
216.218	8.92
216.597	8.34
216.976	8.4
217.355	8.44
217.734	9.86
218.113	10.25
218.492	10.77
218.871	9.05
219.25	9.46
219.629	8.05
220.008	7.71
220.387	6.61
220.766	9
221.144	7.18
221.523	6.52
221.902	7.19
222.28	6.2
222.659	6.92
223.037	5.55
223.416	5.38
223.794	6.36
224.173	6.31
224.551	6.75
224.929	7.37
225.308	7.07
225.686	7.56
226.064	7.61
226.442	7.19
226.821	7.83
227.199	7.68
227.577	7.64
227.955	8.23
228.333	8.06
228.711	7.47
229.089	7.16
229.467	6.71
229.845	6.59
230.222	6.68
230.6	6.34
230.978	6.53
231.356	6.48
231.733	6.07
232.111	5.94
232.488	5.82
232.866	5.5
233.243	5.31
233.621	5.28
233.998	5.25
234.376	5.64
234.753	5.37
235.13	5.42
235.508	5.49
235.885	5.32
236.262	5.09
236.639	4.98
237.016	4.92
237.393	4.88
237.77	4.94
238.147	4.76
238.524	4.72
238.901	4.63
239.278	4.57
239.655	4.66
240.032	4.63
240.409	4.63
240.785	4.63
241.162	4.62
241.539	4.57
241.915	4.59
242.292	4.56
242.668	4.51
243.045	4.5
243.421	4.43
243.798	4.46
244.174	4.51
244.551	4.53
244.927	4.52
245.303	4.53
245.679	4.52
246.056	4.48
246.432	4.47
246.808	4.45
247.184	4.46
247.56	4.47
247.936	4.44
248.312	4.44
248.688	4.43
249.064	4.43
249.44	4.41
249.815	4.33
250.191	4.28
250.567	4.32
250.943	4.29
251.318	4.29
251.694	4.29
252.069	4.27
252.445	4.29
252.82	4.27
253.196	4.25
253.571	4.25
253.947	4.26
254.322	4.27
254.697	4.26
255.073	4.2
255.448	4.19
255.823	4.15
256.198	4.12
256.573	4.11
256.948	4.1
257.323	4.07
257.698	4.02
258.073	3.99
258.448	3.97
258.823	3.99
259.198	3.97
259.573	3.94
259.948	3.9
260.322	3.9
260.697	3.88
261.072	3.85
261.446	3.84
261.821	3.81
262.195	3.79
262.57	3.79
262.944	3.79
263.319	3.81
263.693	3.81
264.067	3.8
264.442	3.77
264.816	3.76
265.19	3.78
265.564	3.8
265.938	3.77
266.313	3.77
266.687	3.75
267.061	3.75
267.435	3.76
267.809	3.74
268.183	3.75
268.556	3.74
268.93	3.73
269.304	3.72
269.678	3.7
270.051	3.69
270.425	3.68
270.799	3.67
271.172	3.69
271.546	3.69
271.919	3.69
272.293	3.67
272.666	3.66
273.04	3.68
273.413	3.72
273.787	3.74
274.16	3.74
274.533	3.75
274.906	3.77
275.279	3.76
275.653	3.77
276.026	3.77
276.399	3.78
276.772	3.8
277.145	3.81
277.518	3.83
277.891	3.84
278.263	3.82
278.636	3.82
279.009	3.81
279.382	3.83
279.755	3.85
280.127	3.85
280.5	3.86
280.872	3.87
281.245	3.86
281.617	3.87
281.99	3.9
282.362	3.9
282.735	3.89
283.107	3.91
283.479	3.89
283.852	3.92
284.224	3.92
284.596	3.92
284.968	3.94
285.34	3.94
285.713	3.95
286.085	3.96
286.457	3.96
286.829	3.95
287.201	3.96
287.572	3.96
287.944	3.98
288.316	3.97
288.688	3.97
289.06	3.95
289.431	3.96
289.803	3.97
290.175	3.98
290.546	4
290.918	4.01
291.289	4.03
291.661	4.05
292.032	4.05
292.403	4.05
292.775	4.07
293.146	4.08
293.517	4.09
293.889	4.11
294.26	4.13
294.631	4.13
295.002	4.15
295.373	4.16
295.744	4.16
296.115	4.18
296.486	4.22
296.857	4.23
297.228	4.24
297.599	4.26
297.97	4.28
298.34	4.28
298.711	4.31
299.082	4.31
299.452	4.34
299.823	4.36
300.194	4.37
300.564	4.4
300.935	4.44
301.305	4.46
301.676	4.47
302.046	4.49
302.416	4.51
302.787	4.53
303.157	4.53
303.527	4.56
303.897	4.58
304.267	4.63
304.637	4.65
305.008	4.68
305.378	4.7
305.748	4.71
306.117	4.73
306.487	4.77
306.857	4.81
307.227	4.84
307.597	4.88
307.967	4.89
308.336	4.92
308.706	4.96
309.076	4.97
309.445	4.99
309.815	5.01
310.184	5.03
310.554	5.06
310.923	5.1
311.293	5.1
311.662	5.1
312.031	5.12
312.401	5.16
312.77	5.17
313.139	5.19
313.508	5.22
313.877	5.24
314.246	5.28
314.616	5.28
314.985	5.31
315.353	5.35
315.722	5.35
316.091	5.37
316.46	5.41
316.829	5.44
317.198	5.48
317.567	5.49
317.935	5.54
318.304	5.57
318.672	5.61
319.041	5.65
319.41	5.67
319.778	5.71
320.147	5.7
320.515	5.73
320.883	5.75
321.252	5.76
321.62	5.78
321.988	5.79
322.357	5.82
322.725	5.84
323.093	5.86
323.461	5.87
323.829	5.88
324.197	5.91
324.565	5.93
324.933	5.97
325.301	5.98
325.669	6.01
326.037	6.01
326.405	6.04
326.772	6.06
327.14	6.08
327.508	6.08
327.875	6.09
328.243	6.1
328.61	6.11
328.978	6.11
329.346	6.12
329.713	6.15
330.08	6.16
330.448	6.15
330.815	6.15
331.182	6.15
331.55	6.16
331.917	6.16
332.284	6.17
332.651	6.18
333.018	6.2
333.385	6.21
333.752	6.22
334.119	6.22
334.486	6.23
334.853	6.25
335.22	6.28
335.587	6.3
335.954	6.32
336.32	6.33
336.687	6.33
337.054	6.34
337.42	6.36
337.787	6.37
338.153	6.38
338.52	6.39
338.886	6.39
339.253	6.4
339.619	6.41
339.986	6.41
340.352	6.42
340.718	6.42
341.084	6.43
341.451	6.43
341.817	6.44
342.183	6.45
342.549	6.45
342.915	6.46
343.281	6.47
343.647	6.48
344.013	6.49
344.379	6.49
344.745	6.48
345.11	6.49
345.476	6.51
345.842	6.53
346.208	6.52
346.573	6.53
346.939	6.53
347.304	6.54
347.67	6.54
348.035	6.54
348.401	6.55
348.766	6.55
349.132	6.56
349.497	6.56
349.862	6.56
350.228	6.57
350.593	6.57
350.958	6.57
351.323	6.58
351.688	6.58
352.053	6.58
352.418	6.57
352.783	6.56
353.148	6.56
353.513	6.56
353.878	6.55
354.243	6.55
354.608	6.55
354.972	6.54
355.337	6.54
355.702	6.53
356.066	6.53
356.431	6.53
356.795	6.52
357.16	6.5
357.524	6.51
357.889	6.5
358.253	6.49
358.618	6.47
358.982	6.46
359.346	6.46
359.71	6.45
360.075	6.45
360.439	6.43
360.803	6.41
361.167	6.4
361.531	6.39
361.895	6.37
362.259	6.36
362.623	6.34
362.987	6.33
363.351	6.31
363.714	6.3
364.078	6.27
364.442	6.25
364.806	6.24
365.169	6.22
365.533	6.2
365.896	6.19
366.26	6.16
366.623	6.14
366.987	6.12
367.35	6.1
367.714	6.08
368.077	6.06
368.44	6.04
368.803	6.02
369.167	5.99
369.53	5.96
369.893	5.92
370.256	5.9
370.619	5.87
370.982	5.84
371.345	5.81
371.708	5.78
372.071	5.76
372.434	5.72
372.797	5.69
373.159	5.67
373.522	5.64
373.885	5.63
374.247	5.6
374.61	5.57
374.973	5.53
375.335	5.5
375.698	5.47
376.06	5.45
376.423	5.42
376.785	5.4
377.147	5.37
377.51	5.35
377.872	5.33
378.234	5.3
378.596	5.28
378.958	5.25
379.321	5.22
379.683	5.2
380.045	5.17
380.407	5.15
380.769	5.12
381.13	5.1
381.492	5.08
381.854	5.06
382.216	5.03
382.578	5.01
382.939	4.99
383.301	4.96
383.663	4.94
384.024	4.92
384.386	4.89
384.747	4.88
385.109	4.86
385.47	4.84
385.832	4.81
386.193	4.79
386.554	4.77
386.916	4.75
387.277	4.73
387.638	4.71
387.999	4.69
388.36	4.68
388.721	4.66
389.082	4.63
389.443	4.62
389.804	4.6
390.165	4.59
390.526	4.57
390.887	4.55
391.248	4.54
391.609	4.52
391.969	4.51
392.33	4.49
392.691	4.48
393.051	4.46
393.412	4.45
393.772	4.43
394.133	4.42
394.493	4.4
394.854	4.38
395.214	4.37
395.574	4.35
395.935	4.34
396.295	4.32
396.655	4.31
397.015	4.29
397.376	4.28
397.736	4.26
398.096	4.25
398.456	4.23
398.816	4.22
399.176	4.21
399.535	4.19
399.895	4.18
400.255	4.17
400.615	4.16
400.975	4.15
401.334	4.13
401.694	4.13
402.054	4.12
402.413	4.11
402.773	4.09
403.132	4.09
403.492	4.08
403.851	4.07
404.211	4.07
404.57	4.06
404.929	4.05
405.288	4.05
405.648	4.04
406.007	4.04
406.366	4.03
406.725	4.02
407.084	4.01
407.443	4.01
407.802	4
408.161	4
408.52	3.99
408.879	3.99
409.238	3.99
409.596	3.98
409.955	3.98
410.314	3.97
410.673	3.96
411.031	3.96
411.39	3.96
411.748	3.96
412.107	3.96
412.465	3.97
412.824	3.98
413.182	4
413.54	4.02
413.899	4.04
414.257	4.07
414.615	4.11
414.974	4.13
415.332	4.16
415.69	4.2
416.048	4.22
416.406	4.26
416.764	4.28
417.122	4.3
417.48	4.33
417.838	4.36
418.195	4.38
418.553	4.4
418.911	4.41
419.269	4.41
419.626	4.41
419.984	4.4
420.342	4.38
420.699	4.36
421.057	4.34
421.414	4.32
421.772	4.31
422.129	4.3
422.486	4.29
422.844	4.29
423.201	4.28
423.558	4.28
423.915	4.27
424.273	4.27
424.63	4.27
424.987	4.27
425.344	4.27
425.701	4.26
426.058	4.26
426.415	4.26
426.772	4.25
427.128	4.25
427.485	4.23
427.842	4.22
428.199	4.21
428.555	4.19
428.912	4.16
429.269	4.13
429.625	4.11
429.982	4.08
430.338	4.05
430.695	4.03
431.051	3.99
431.407	3.97
431.764	3.95
432.12	3.93
432.476	3.92
432.832	3.91
433.189	3.91
433.545	3.91
433.901	3.92
434.257	3.94
434.613	3.97
434.969	3.99
435.325	4.01
435.681	4.05
436.036	4.07
436.392	4.09
436.748	4.11
437.104	4.12
437.459	4.14
437.815	4.16
438.171	4.18
438.526	4.2
438.882	4.23
439.237	4.26
439.593	4.29
439.948	4.32
440.304	4.36
440.659	4.38
441.014	4.4
441.369	4.43
441.725	4.44
442.08	4.46
442.435	4.48
442.79	4.48
443.145	4.49
443.5	4.49
443.855	4.49
444.21	4.49
444.565	4.48
444.92	4.47
445.275	4.47
445.629	4.46
445.984	4.45
446.339	4.44
446.693	4.42
447.048	4.41
447.403	4.39
447.757	4.37
448.112	4.35
448.466	4.33
448.82	4.3
449.175	4.28
449.529	4.26
449.883	4.24
450.238	4.21
450.592	4.21
450.946	4.2
451.3	4.19
451.654	4.2
452.008	4.2
452.362	4.2
452.716	4.2
453.07	4.2
453.424	4.2
453.778	4.19
454.132	4.18
454.486	4.17
454.839	4.15
455.193	4.14
455.547	4.13
455.9	4.1
456.254	4.08
456.607	4.05
456.961	4.03
457.314	4
457.668	3.99
458.021	3.99
458.375	3.98
458.728	3.98
459.081	3.98
459.434	3.99
459.787	4
460.141	4.01
460.494	4.02
460.847	4.03
461.2	4.03
461.553	4.04
461.906	4.05
462.259	4.05
462.611	4.06
462.964	4.06
463.317	4.07
463.67	4.07
464.022	4.08
464.375	4.09
464.728	4.1
465.08	4.1
465.433	4.11
465.785	4.11
466.138	4.1
466.49	4.08
466.843	4.07
467.195	4.05
467.547	4.03
467.899	4.01
468.252	3.98
468.604	3.96
468.956	3.95
469.308	3.93
469.66	3.93
470.012	3.93
470.364	3.93
470.716	3.94
471.068	3.96
471.42	3.98
471.772	4
472.123	4.01
472.475	4.03
472.827	4.04
473.178	4.05
473.53	4.06
473.882	4.07
474.233	4.09
474.585	4.13
474.936	4.19
475.288	4.27
475.639	4.38
475.99	4.51
476.342	4.65
476.693	4.81
477.044	4.96
477.395	5.12
477.746	5.29
478.097	5.46
478.448	5.63
478.8	5.79
479.15	5.94
479.501	6.08
479.852	6.21
480.203	6.33
480.554	6.45
480.905	6.56
481.255	6.67
481.606	6.77
481.957	6.86
482.307	6.96
482.658	7.04
483.009	7.12
483.359	7.2
483.709	7.28
484.06	7.35
484.41	7.42
484.761	7.5
485.111	7.56
485.461	7.63
485.811	7.68
486.162	7.74
486.512	7.79
486.862	7.82
487.212	7.85
487.562	7.87
487.912	7.88
488.262	7.89
488.612	7.88
488.961	7.86
489.311	7.82
489.661	7.76
490.011	7.68
490.36	7.58
490.71	7.46
491.06	7.34
491.409	7.2
491.759	7.06
492.108	6.91
492.458	6.76
492.807	6.61
493.157	6.46
493.506	6.31
493.855	6.17
494.204	6.04
494.554	5.91
494.903	5.8
495.252	5.69
495.601	5.59
495.95	5.49
496.299	5.39
496.648	5.3
496.997	5.23
497.346	5.15
497.695	5.08
498.043	5.01
498.392	4.95
498.741	4.89
499.09	4.83
499.438	4.78
499.787	4.73
500.135	4.69
500.484	4.66
500.832	4.64
501.181	4.62
501.529	4.63
501.878	4.64
502.226	4.66
502.574	4.69
502.923	4.73
503.271	4.76
503.619	4.8
503.967	4.84
504.315	4.88
504.663	4.91
505.011	4.96
505.359	5
505.707	5.04
506.055	5.09
506.403	5.14
506.751	5.2
507.098	5.26
507.446	5.32
507.794	5.38
508.141	5.45
508.489	5.52
508.837	5.6
509.184	5.68
509.531	5.76
509.879	5.84
510.226	5.94
510.574	6.03
510.921	6.14
511.268	6.25
511.616	6.36
511.963	6.47
512.31	6.59
512.657	6.71
513.004	6.83
513.351	6.94
513.698	7.04
514.045	7.14
514.392	7.23
514.739	7.32
515.086	7.4
515.432	7.49
515.779	7.57
516.126	7.66
516.473	7.76
516.819	7.86
517.166	7.98
517.512	8.11
517.859	8.25
518.205	8.4
518.552	8.57
518.898	8.75
519.245	8.95
519.591	9.21
519.937	9.5
520.283	9.85
520.629	10.24
520.976	10.64
521.322	11.06
521.668	11.49
522.014	11.94
522.36	12.38
522.706	12.81
523.052	13.24
523.398	13.64
523.743	14.01
524.089	14.36
524.435	14.68
524.781	14.99
525.126	15.3
525.472	15.61
525.817	15.91
526.163	16.21
526.509	16.5
526.854	16.79
527.199	17.07
527.545	17.36
527.89	17.67
528.235	17.97
528.581	18.26
528.926	18.54
529.271	18.8
529.616	19.05
529.961	19.3
530.306	19.54
530.651	19.75
530.996	19.96
531.341	20.15
531.686	20.33
532.031	20.5
532.376	20.69
532.721	20.9
533.065	21.14
533.41	21.38
533.755	21.6
534.099	21.81
534.444	22
534.788	22.16
535.133	22.33
535.477	22.47
535.822	22.6
536.166	22.7
536.51	22.76
536.855	22.79
537.199	22.8
537.543	22.81
537.887	22.84
538.231	22.88
538.576	22.93
538.92	22.97
539.264	23.01
539.608	23.02
539.951	23.03
540.295	23.03
540.639	23.03
540.983	23.01
541.327	22.99
541.671	22.94
542.014	22.92
542.358	22.9
542.701	22.93
543.045	23.01
543.389	23.11
543.732	23.22
544.075	23.34
544.419	23.48
544.762	23.63
545.105	23.79
545.449	23.95
545.792	24.12
546.135	24.29
546.478	24.43
546.821	24.55
547.165	24.61
547.508	24.65
547.851	24.65
548.194	24.63
548.536	24.57
548.879	24.49
549.222	24.4
549.565	24.3
549.908	24.2
550.25	24.12
550.593	24.09
550.936	24.1
551.278	24.15
551.621	24.23
551.963	24.32
552.306	24.42
552.648	24.55
552.991	24.71
553.333	24.88
553.675	25.08
554.017	25.3
554.36	25.53
554.702	25.79
555.044	26.07
555.386	26.39
555.728	26.74
556.07	27.05
556.412	27.36
556.754	27.63
557.096	27.84
557.438	28.06
557.78	28.27
558.121	28.5
558.463	28.72
558.805	28.95
559.147	29.17
559.488	29.4
559.83	29.62
560.171	29.85
560.513	30.07
560.854	30.28
561.196	30.5
561.537	30.71
561.878	30.92
562.22	31.12
562.561	31.32
562.902	31.52
563.243	31.72
563.584	31.91
563.925	32.11
564.266	32.31
564.607	32.5
564.948	32.69
565.289	32.88
565.63	33.06
565.971	33.26
566.312	33.44
566.653	33.62
566.993	33.79
567.334	33.96
567.675	34.12
568.015	34.29
568.356	34.45
568.696	34.6
569.037	34.76
569.377	34.91
569.718	35.05
570.058	35.18
570.398	35.31
570.739	35.45
571.079	35.59
571.419	35.72
571.759	35.85
572.099	35.97
572.439	36.09
572.779	36.22
573.119	36.33
573.459	36.45
573.799	36.57
574.139	36.68
574.479	36.79
574.819	36.91
575.158	37.03
575.498	37.13
575.838	37.23
576.177	37.34
576.517	37.44
576.856	37.54
577.196	37.65
577.535	37.75
577.875	37.85
578.214	37.96
578.553	38.06
578.893	38.17
579.232	38.28
579.571	38.37
579.91	38.47
580.25	38.57
580.589	38.68
580.928	38.79
581.267	38.89
581.606	39
581.945	39.1
582.283	39.21
582.622	39.31
582.961	39.41
583.3	39.54
583.639	39.64
583.977	39.75
584.316	39.87
584.654	39.97
584.993	40.06
585.332	40.17
585.67	40.27
586.008	40.37
586.347	40.48
586.685	40.57
587.024	40.68
587.362	40.78
587.7	40.87
588.038	40.98
588.376	41.08
588.715	41.18
589.053	41.29
589.391	41.41
589.729	41.52
590.067	41.63
590.404	41.73
590.742	41.83
591.08	41.93
591.418	42.02
591.756	42.11
592.093	42.2
592.431	42.28
592.769	42.36
593.106	42.43
593.444	42.51
593.781	42.59
594.119	42.67
594.456	42.73
594.793	42.81
595.131	42.87
595.468	42.94
595.805	43.02
596.143	43.09
596.48	43.17
596.817	43.26
597.154	43.34
597.491	43.43
597.828	43.51
598.165	43.59
598.502	43.67
598.839	43.74
599.176	43.81
599.512	43.88
599.849	43.94
600.186	44
600.523	44.06
600.859	44.12
601.196	44.17
601.532	44.24
601.869	44.3
602.205	44.36
602.542	44.41
602.878	44.46
603.215	44.5
603.551	44.56
603.887	44.61
604.223	44.65
604.56	44.7
604.896	44.75
605.232	44.8
605.568	44.85
605.904	44.89
606.24	44.93
606.576	44.97
606.912	45.02
607.248	45.05
607.583	45.08
607.919	45.11
608.255	45.16
608.591	45.2
608.926	45.24
609.262	45.27
609.597	45.3
609.933	45.34
610.268	45.37
610.604	45.4
610.939	45.42
611.275	45.45
611.61	45.47
611.945	45.5
612.281	45.51
612.616	45.55
612.951	45.58
613.286	45.61
613.621	45.64
613.956	45.68
614.291	45.71
614.626	45.74
614.961	45.78
615.296	45.81
615.631	45.83
615.966	45.86
616.3	45.9
616.635	45.93
616.97	45.97
617.304	45.99
617.639	46.01
617.973	46.05
618.308	46.07
618.642	46.11
618.977	46.14
619.311	46.17
619.646	46.21
619.98	46.24
620.314	46.27
620.648	46.32
620.983	46.35
621.317	46.4
621.651	46.43
621.985	46.46
622.319	46.5
622.653	46.54
622.987	46.57
623.321	46.61
623.655	46.64
623.988	46.67
624.322	46.7
624.656	46.72
624.99	46.74
625.323	46.77
625.657	46.8
625.99	46.83
626.324	46.85
626.657	46.86
626.991	46.89
627.324	46.91
627.658	46.94
627.991	46.95
628.324	46.97
628.657	47
628.991	47.02
629.324	47.06
629.657	47.09
629.99	47.1
630.323	47.13
630.656	47.15
630.989	47.18
631.322	47.21
631.655	47.24
631.987	47.27
632.32	47.29
632.653	47.32
632.986	47.33
633.318	47.35
633.651	47.39
633.984	47.41
634.316	47.42
634.649	47.44
634.981	47.46
635.313	47.48
635.646	47.5
635.978	47.53
636.31	47.55
636.643	47.58
636.975	47.6
637.307	47.61
637.639	47.63
637.971	47.65
638.303	47.68
638.635	47.69
638.967	47.73
639.299	47.74
639.631	47.78
639.963	47.82
640.295	47.86
640.626	47.88
640.958	47.92
641.29	47.95
641.621	47.99
641.953	48.02
642.285	48.04
642.616	48.05
642.948	48.07
643.279	48.09
643.61	48.12
643.942	48.14
644.273	48.16
644.604	48.17
644.936	48.2
645.267	48.23
645.598	48.25
645.929	48.27
646.26	48.29
646.591	48.32
646.922	48.34
647.253	48.36
647.584	48.39
647.915	48.41
648.245	48.44
648.576	48.44
648.907	48.47
649.238	48.5
649.568	48.5
649.899	48.5
650.229	48.53
650.56	48.53
650.89	48.56
651.221	48.58
651.551	48.6
651.882	48.62
652.212	48.65
652.542	48.66
652.872	48.69
653.203	48.7
653.533	48.72
653.863	48.73
654.193	48.75
654.523	48.77
654.853	48.78
655.183	48.8
655.513	48.82
655.843	48.84
656.172	48.85
656.502	48.87
656.832	48.88
657.162	48.91
657.491	48.94
657.821	48.97
658.15	48.99
658.48	49.01
658.809	49.02
659.139	49.03
659.468	49.04
659.798	49.06
660.127	49.07
660.456	49.1
660.785	49.11
661.115	49.12
661.444	49.14
661.773	49.15
662.102	49.18
662.431	49.19
662.76	49.21
663.089	49.24
663.418	49.27
663.747	49.3
664.076	49.32
664.404	49.35
664.733	49.37
665.062	49.4
665.39	49.42
665.719	49.45
666.048	49.48
666.376	49.51
666.705	49.53
667.033	49.53
667.362	49.55
667.69	49.59
668.018	49.61
668.347	49.64
668.675	49.65
669.003	49.67
669.331	49.69
669.659	49.71
669.987	49.73
670.315	49.74
670.643	49.74
670.971	49.75
671.299	49.77
671.627	49.78
