Data from UWBM59058_Reflection_00014.txt Node
Date: Sun May 02 13:02:57 EDT 2021
User: vgr7
Spectrometer: USB2G7710
Scans to average: 10
Trigger mode: 4
Integration Time (sec): 1.000000E-1
Electric dark correction enabled: true
Boxcar width: 20
XAxis mode: Wavelengths
Number of Pixels in Spectrum: 2048
>>>>>Begin Spectral Data<<<<<
177.721	98.64
178.105	98.68
178.488	98.67
178.871	98.73
179.254	97.69
179.636	96.97
180.019	95.32
180.402	92.79
180.785	90.37
181.168	87.07
181.55	84.92
181.933	115.24
182.316	115.42
182.698	117.46
183.081	118.35
183.463	119.23
183.846	120.29
184.228	121.82
184.611	125.24
184.993	130.1
185.376	133.5
185.758	-56.6
186.14	-27.28
186.522	-3.14
186.904	8.14
187.287	15.67
187.669	17.77
188.051	21.25
188.433	23.84
188.815	20.72
189.197	19.18
189.579	20.02
189.961	19.94
190.342	16.31
190.724	17.39
191.106	15.31
191.488	17.93
191.869	13.39
192.251	12.88
192.633	9.96
193.014	9.34
193.396	8.42
193.777	13.55
194.159	13.85
194.54	13.68
194.922	13.09
195.303	14.08
195.684	14.35
196.065	13.2
196.447	13.44
196.828	13.64
197.209	14.19
197.59	4.81
197.971	3.27
198.352	6.2
198.733	7.33
199.114	6.38
199.495	6.73
199.876	6.98
200.257	6.56
200.638	6.38
201.018	1.44
201.399	1.59
201.78	1.27
202.16	0.12
202.541	0.82
202.922	1.26
203.302	-1.44
203.683	-1.31
204.063	-2.13
204.444	-0.77
204.824	1.54
205.204	4.11
205.585	10.74
205.965	11.6
206.345	13.23
206.725	9.29
207.106	8.41
207.486	8.8
207.866	9.13
208.246	9.58
208.626	12.03
209.006	16.11
209.386	14.07
209.766	14.62
210.145	13.7
210.525	14.07
210.905	16.2
211.285	16.94
211.664	16.45
212.044	17.94
212.424	17.63
212.803	12.84
213.183	16.32
213.562	16.23
213.942	14.65
214.321	12.33
214.701	12.4
215.08	13.25
215.459	14.14
215.838	13.47
216.218	13.96
216.597	13
216.976	9.17
217.355	9.13
217.734	9.73
218.113	10.5
218.492	10.84
218.871	12.42
219.25	11.56
219.629	11.32
220.008	9.93
220.387	9.97
220.766	10.46
221.144	11.13
221.523	11.79
221.902	11.55
222.28	11.69
222.659	12.37
223.037	12.67
223.416	13.14
223.794	13.8
224.173	12.93
224.551	12.16
224.929	11.71
225.308	12.41
225.686	12.01
226.064	11.69
226.442	11.32
226.821	10.85
227.199	10.3
227.577	8.59
227.955	7.88
228.333	7.93
228.711	7.66
229.089	8.09
229.467	7.53
229.845	8.07
230.222	7.84
230.6	7.95
230.978	7.43
231.356	7
231.733	6.7
232.111	6.54
232.488	6.6
232.866	6.56
233.243	6.18
233.621	6.11
233.998	5.87
234.376	5.64
234.753	5.59
235.13	5.61
235.508	6.15
235.885	6.08
236.262	5.89
236.639	5.88
237.016	5.81
237.393	5.78
237.77	5.66
238.147	5.54
238.524	5.47
238.901	5.52
239.278	5.56
239.655	5.57
240.032	5.5
240.409	5.45
240.785	5.39
241.162	5.43
241.539	5.4
241.915	5.41
242.292	5.4
242.668	5.34
243.045	5.36
243.421	5.28
243.798	5.25
244.174	5.22
244.551	5.15
244.927	4.99
245.303	4.93
245.679	4.95
246.056	4.88
246.432	4.88
246.808	4.7
247.184	4.72
247.56	4.71
247.936	4.7
248.312	4.69
248.688	4.74
249.064	4.73
249.44	4.68
249.815	4.7
250.191	4.68
250.567	4.67
250.943	4.74
251.318	4.77
251.694	4.73
252.069	4.67
252.445	4.68
252.82	4.76
253.196	4.76
253.571	4.72
253.947	4.82
254.322	4.77
254.697	4.87
255.073	4.85
255.448	4.83
255.823	4.82
256.198	4.77
256.573	4.59
256.948	4.56
257.323	4.56
257.698	4.5
258.073	4.49
258.448	4.38
258.823	4.35
259.198	4.34
259.573	4.37
259.948	4.4
260.322	4.37
260.697	4.38
261.072	4.36
261.446	4.36
261.821	4.32
262.195	4.26
262.57	4.22
262.944	4.23
263.319	4.21
263.693	4.22
264.067	4.24
264.442	4.31
264.816	4.31
265.19	4.28
265.564	4.33
265.938	4.29
266.313	4.33
266.687	4.27
267.061	4.29
267.435	4.27
267.809	4.25
268.183	4.22
268.556	4.23
268.93	4.23
269.304	4.2
269.678	4.17
270.051	4.15
270.425	4.14
270.799	4.16
271.172	4.17
271.546	4.17
271.919	4.17
272.293	4.16
272.666	4.15
273.04	4.16
273.413	4.12
273.787	4.12
274.16	4.14
274.533	4.17
274.906	4.16
275.279	4.18
275.653	4.17
276.026	4.16
276.399	4.12
276.772	4.12
277.145	4.15
277.518	4.18
277.891	4.22
278.263	4.21
278.636	4.22
279.009	4.24
279.382	4.22
279.755	4.19
280.127	4.22
280.5	4.22
280.872	4.22
281.245	4.34
281.617	4.35
281.99	4.39
282.362	4.42
282.735	4.43
283.107	4.44
283.479	4.47
283.852	4.49
284.224	4.53
284.596	4.5
284.968	4.4
285.34	4.4
285.713	4.38
286.085	4.31
286.457	4.32
286.829	4.31
287.201	4.32
287.572	4.39
287.944	4.41
288.316	4.45
288.688	4.5
289.06	4.5
289.431	4.51
289.803	4.53
290.175	4.55
290.546	4.58
290.918	4.61
291.289	4.59
291.661	4.65
292.032	4.63
292.403	4.67
292.775	4.77
293.146	4.8
293.517	4.87
293.889	4.96
294.26	4.99
294.631	5.03
295.002	5.1
295.373	5.16
295.744	5.2
296.115	5.23
296.486	5.21
296.857	5.24
297.228	5.26
297.599	5.29
297.97	5.3
298.34	5.34
298.711	5.31
299.082	5.34
299.452	5.4
299.823	5.48
300.194	5.53
300.564	5.57
300.935	5.63
301.305	5.67
301.676	5.69
302.046	5.73
302.416	5.78
302.787	5.82
303.157	5.81
303.527	5.87
303.897	5.92
304.267	6.01
304.637	6.07
305.008	6.13
305.378	6.19
305.748	6.24
306.117	6.37
306.487	6.48
306.857	6.58
307.227	6.65
307.597	6.7
307.967	6.75
308.336	6.8
308.706	6.85
309.076	6.9
309.445	6.93
309.815	6.87
310.184	6.91
310.554	6.91
310.923	6.98
311.293	7.04
311.662	7.08
312.031	7.12
312.401	7.17
312.77	7.19
313.139	7.24
313.508	7.32
313.877	7.32
314.246	7.37
314.616	7.4
314.985	7.4
315.353	7.45
315.722	7.5
316.091	7.54
316.46	7.6
316.829	7.69
317.198	7.76
317.567	7.95
317.935	8.03
318.304	8.15
318.672	8.24
319.041	8.31
319.41	8.38
319.778	8.49
320.147	8.58
320.515	8.66
320.883	8.71
321.252	8.71
321.62	8.81
321.988	8.89
322.357	8.94
322.725	9.04
323.093	9.11
323.461	9.17
323.829	9.24
324.197	9.3
324.565	9.35
324.933	9.42
325.301	9.47
325.669	9.53
326.037	9.58
326.405	9.58
326.772	9.64
327.14	9.69
327.508	9.73
327.875	9.79
328.243	9.85
328.61	9.86
328.978	9.92
329.346	9.96
329.713	10
330.08	10.05
330.448	10.09
330.815	10.11
331.182	10.17
331.55	10.21
331.917	10.26
332.284	10.3
332.651	10.36
333.018	10.4
333.385	10.44
333.752	10.49
334.119	10.55
334.486	10.6
334.853	10.6
335.22	10.65
335.587	10.67
335.954	10.73
336.32	10.79
336.687	10.83
337.054	10.86
337.42	10.92
337.787	10.96
338.153	11.01
338.52	11.07
338.886	11.13
339.253	11.15
339.619	11.17
339.986	11.17
340.352	11.19
340.718	11.23
341.084	11.27
341.451	11.29
341.817	11.29
342.183	11.3
342.549	11.34
342.915	11.35
343.281	11.38
343.647	11.41
344.013	11.46
344.379	11.49
344.745	11.51
345.11	11.52
345.476	11.56
345.842	11.58
346.208	11.57
346.573	11.59
346.939	11.62
347.304	11.64
347.67	11.64
348.035	11.67
348.401	11.68
348.766	11.71
349.132	11.71
349.497	11.73
349.862	11.75
350.228	11.76
350.593	11.77
350.958	11.76
351.323	11.74
351.688	11.74
352.053	11.73
352.418	11.72
352.783	11.72
353.148	11.7
353.513	11.69
353.878	11.67
354.243	11.65
354.608	11.62
354.972	11.62
355.337	11.6
355.702	11.56
356.066	11.55
356.431	11.52
356.795	11.5
357.16	11.47
357.524	11.45
357.889	11.43
358.253	11.41
358.618	11.39
358.982	11.37
359.346	11.35
359.71	11.32
360.075	11.29
360.439	11.26
360.803	11.22
361.167	11.19
361.531	11.17
361.895	11.13
362.259	11.09
362.623	11.06
362.987	11.01
363.351	10.99
363.714	10.95
364.078	10.9
364.442	10.86
364.806	10.84
365.169	10.77
365.533	10.73
365.896	10.67
366.26	10.63
366.623	10.57
366.987	10.52
367.35	10.48
367.714	10.43
368.077	10.37
368.44	10.32
368.803	10.26
369.167	10.21
369.53	10.15
369.893	10.08
370.256	10.02
370.619	9.96
370.982	9.89
371.345	9.82
371.708	9.76
372.071	9.69
372.434	9.63
372.797	9.58
373.159	9.52
373.522	9.45
373.885	9.38
374.247	9.3
374.61	9.23
374.973	9.16
375.335	9.09
375.698	9.02
376.06	8.95
376.423	8.88
376.785	8.82
377.147	8.75
377.51	8.69
377.872	8.63
378.234	8.56
378.596	8.52
378.958	8.46
379.321	8.41
379.683	8.34
380.045	8.27
380.407	8.22
380.769	8.16
381.13	8.11
381.492	8.06
381.854	8.01
382.216	7.95
382.578	7.9
382.939	7.85
383.301	7.8
383.663	7.74
384.024	7.69
384.386	7.65
384.747	7.6
385.109	7.54
385.47	7.49
385.832	7.45
386.193	7.39
386.554	7.34
386.916	7.3
387.277	7.25
387.638	7.22
387.999	7.18
388.36	7.14
388.721	7.1
389.082	7.06
389.443	7.02
389.804	6.99
390.165	6.95
390.526	6.91
390.887	6.87
391.248	6.83
391.609	6.79
391.969	6.76
392.33	6.72
392.691	6.69
393.051	6.65
393.412	6.61
393.772	6.57
394.133	6.54
394.493	6.49
394.854	6.46
395.214	6.42
395.574	6.38
395.935	6.34
396.295	6.3
396.655	6.26
397.015	6.22
397.376	6.18
397.736	6.14
398.096	6.1
398.456	6.07
398.816	6.05
399.176	6
399.535	5.97
399.895	5.94
400.255	5.91
400.615	5.88
400.975	5.85
401.334	5.81
401.694	5.78
402.054	5.76
402.413	5.71
402.773	5.68
403.132	5.66
403.492	5.63
403.851	5.61
404.211	5.59
404.57	5.57
404.929	5.56
405.288	5.54
405.648	5.53
406.007	5.51
406.366	5.5
406.725	5.49
407.084	5.47
407.443	5.46
407.802	5.43
408.161	5.41
408.52	5.39
408.879	5.38
409.238	5.36
409.596	5.35
409.955	5.34
410.314	5.33
410.673	5.31
411.031	5.3
411.39	5.3
411.748	5.29
412.107	5.28
412.465	5.27
412.824	5.29
413.182	5.29
413.54	5.3
413.899	5.31
414.257	5.34
414.615	5.37
414.974	5.39
415.332	5.43
415.69	5.46
416.048	5.48
416.406	5.51
416.764	5.53
417.122	5.55
417.48	5.58
417.838	5.6
418.195	5.62
418.553	5.63
418.911	5.64
419.269	5.63
419.626	5.61
419.984	5.59
420.342	5.56
420.699	5.53
421.057	5.5
421.414	5.47
421.772	5.44
422.129	5.42
422.486	5.41
422.844	5.4
423.201	5.39
423.558	5.38
423.915	5.37
424.273	5.35
424.63	5.35
424.987	5.33
425.344	5.32
425.701	5.31
426.058	5.3
426.415	5.29
426.772	5.28
427.128	5.27
427.485	5.24
427.842	5.23
428.199	5.2
428.555	5.17
428.912	5.14
429.269	5.1
429.625	5.08
429.982	5.04
430.338	5
430.695	4.97
431.051	4.92
431.407	4.9
431.764	4.87
432.12	4.84
432.476	4.83
432.832	4.81
433.189	4.81
433.545	4.82
433.901	4.83
434.257	4.85
434.613	4.88
434.969	4.91
435.325	4.94
435.681	4.99
436.036	5
436.392	5.03
436.748	5.03
437.104	5.04
437.459	5.06
437.815	5.08
438.171	5.1
438.526	5.13
438.882	5.16
439.237	5.2
439.593	5.24
439.948	5.27
440.304	5.31
440.659	5.34
441.014	5.36
441.369	5.38
441.725	5.4
442.08	5.42
442.435	5.43
442.79	5.43
443.145	5.43
443.5	5.43
443.855	5.42
444.21	5.42
444.565	5.4
444.92	5.39
445.275	5.38
445.629	5.36
445.984	5.35
446.339	5.33
446.693	5.32
447.048	5.29
447.403	5.27
447.757	5.24
448.112	5.21
448.466	5.18
448.82	5.15
449.175	5.12
449.529	5.1
449.883	5.08
450.238	5.04
450.592	5.03
450.946	5.02
451.3	5.02
451.654	5.03
452.008	5.02
452.362	5.02
452.716	5.02
453.07	5.02
453.424	5.01
453.778	4.99
454.132	4.97
454.486	4.96
454.839	4.94
455.193	4.91
455.547	4.89
455.9	4.86
456.254	4.83
456.607	4.8
456.961	4.77
457.314	4.75
457.668	4.74
458.021	4.73
458.375	4.73
458.728	4.74
459.081	4.74
459.434	4.75
459.787	4.76
460.141	4.78
460.494	4.79
460.847	4.8
461.2	4.81
461.553	4.83
461.906	4.84
462.259	4.85
462.611	4.86
462.964	4.87
463.317	4.88
463.67	4.89
464.022	4.9
464.375	4.91
464.728	4.92
465.08	4.93
465.433	4.94
465.785	4.94
466.138	4.93
466.49	4.92
466.843	4.91
467.195	4.89
467.547	4.88
467.899	4.86
468.252	4.84
468.604	4.82
468.956	4.8
469.308	4.79
469.66	4.8
470.012	4.8
470.364	4.81
470.716	4.83
471.068	4.86
471.42	4.89
471.772	4.92
472.123	4.94
472.475	4.96
472.827	4.97
473.178	4.98
473.53	5
473.882	5.02
474.233	5.05
474.585	5.1
474.936	5.17
475.288	5.28
475.639	5.42
475.99	5.58
476.342	5.75
476.693	5.94
477.044	6.12
477.395	6.32
477.746	6.52
478.097	6.72
478.448	6.92
478.8	7.12
479.15	7.3
479.501	7.46
479.852	7.61
480.203	7.75
480.554	7.88
480.905	8.01
481.255	8.13
481.606	8.25
481.957	8.35
482.307	8.45
482.658	8.55
483.009	8.64
483.359	8.73
483.709	8.82
484.06	8.9
484.41	8.98
484.761	9.06
485.111	9.13
485.461	9.2
485.811	9.28
486.162	9.34
486.512	9.39
486.862	9.43
487.212	9.46
487.562	9.49
487.912	9.5
488.262	9.5
488.612	9.5
488.961	9.47
489.311	9.43
489.661	9.36
490.011	9.25
490.36	9.13
490.71	8.99
491.06	8.84
491.409	8.68
491.759	8.52
492.108	8.36
492.458	8.19
492.807	8
493.157	7.82
493.506	7.65
493.855	7.49
494.204	7.35
494.554	7.21
494.903	7.09
495.252	6.98
495.601	6.87
495.95	6.77
496.299	6.68
496.648	6.59
496.997	6.52
497.346	6.46
497.695	6.39
498.043	6.34
498.392	6.29
498.741	6.25
499.09	6.21
499.438	6.18
499.787	6.15
500.135	6.13
500.484	6.13
500.832	6.15
501.181	6.17
501.529	6.22
501.878	6.28
502.226	6.35
502.574	6.43
502.923	6.52
503.271	6.62
503.619	6.72
503.967	6.82
504.315	6.92
504.663	7.03
505.011	7.14
505.359	7.25
505.707	7.37
506.055	7.5
506.403	7.63
506.751	7.77
507.098	7.9
507.446	8.05
507.794	8.21
508.141	8.39
508.489	8.57
508.837	8.76
509.184	8.95
509.531	9.15
509.879	9.35
510.226	9.58
510.574	9.81
510.921	10.05
511.268	10.29
511.616	10.55
511.963	10.82
512.31	11.1
512.657	11.37
513.004	11.64
513.351	11.9
513.698	12.15
514.045	12.39
514.392	12.63
514.739	12.85
515.086	13.07
515.432	13.29
515.779	13.52
516.126	13.76
516.473	14.01
516.819	14.28
517.166	14.58
517.512	14.89
517.859	15.22
518.205	15.58
518.552	15.97
518.898	16.39
519.245	16.86
519.591	17.4
519.937	18.05
520.283	18.79
520.629	19.59
520.976	20.42
521.322	21.28
521.668	22.16
522.014	23.02
522.36	23.88
522.706	24.73
523.052	25.57
523.398	26.37
523.743	27.1
524.089	27.77
524.435	28.41
524.781	29.03
525.126	29.64
525.472	30.24
525.817	30.83
526.163	31.4
526.509	31.96
526.854	32.52
527.199	33.06
527.545	33.62
527.89	34.18
528.235	34.74
528.581	35.26
528.926	35.76
529.271	36.23
529.616	36.69
529.961	37.11
530.306	37.48
530.651	37.84
530.996	38.16
531.341	38.45
531.686	38.74
532.031	38.99
532.376	39.28
532.721	39.6
533.065	39.95
533.41	40.3
533.755	40.61
534.099	40.86
534.444	41.06
534.788	41.22
535.133	41.37
535.477	41.49
535.822	41.56
536.166	41.59
536.51	41.56
536.855	41.46
537.199	41.33
537.543	41.19
537.887	41.09
538.231	41.03
538.576	40.98
538.92	40.91
539.264	40.84
539.608	40.74
539.951	40.6
540.295	40.47
540.639	40.31
540.983	40.13
541.327	39.95
541.671	39.76
542.014	39.59
542.358	39.45
542.701	39.41
543.045	39.43
543.389	39.48
543.732	39.54
544.075	39.64
544.419	39.76
544.762	39.88
545.105	40.01
545.449	40.17
545.792	40.34
546.135	40.51
546.478	40.62
546.821	40.66
547.165	40.63
547.508	40.54
547.851	40.39
548.194	40.2
548.536	39.96
548.879	39.69
549.222	39.38
549.565	39.07
549.908	38.77
550.25	38.5
550.593	38.3
550.936	38.18
551.278	38.11
551.621	38.1
551.963	38.1
552.306	38.13
552.648	38.19
552.991	38.28
553.333	38.4
553.675	38.55
554.017	38.74
554.36	38.96
554.702	39.22
555.044	39.51
555.386	39.86
555.728	40.2
556.07	40.51
556.412	40.83
556.754	41.02
557.096	41.21
557.438	41.4
557.78	41.59
558.121	41.78
558.463	41.97
558.805	42.16
559.147	42.35
559.488	42.53
559.83	42.71
560.171	42.88
560.513	43.06
560.854	43.23
561.196	43.4
561.537	43.56
561.878	43.74
562.22	43.9
562.561	44.05
562.902	44.22
563.243	44.39
563.584	44.55
563.925	44.71
564.266	44.88
564.607	45.03
564.948	45.18
565.289	45.33
565.63	45.49
565.971	45.65
566.312	45.79
566.653	45.94
566.993	46.08
567.334	46.22
567.675	46.36
568.015	46.5
568.356	46.63
568.696	46.74
569.037	46.86
569.377	46.98
569.718	47.1
570.058	47.2
570.398	47.3
570.739	47.4
571.079	47.49
571.419	47.58
571.759	47.66
572.099	47.75
572.439	47.83
572.779	47.91
573.119	48
573.459	48.08
573.799	48.16
574.139	48.24
574.479	48.33
574.819	48.4
575.158	48.48
575.498	48.55
575.838	48.62
576.177	48.68
576.517	48.76
576.856	48.83
577.196	48.89
577.535	48.95
577.875	49.01
578.214	49.07
578.553	49.13
578.893	49.18
579.232	49.24
579.571	49.3
579.91	49.35
580.25	49.41
580.589	49.47
580.928	49.53
581.267	49.57
581.606	49.62
581.945	49.68
582.283	49.75
582.622	49.83
582.961	49.89
583.3	49.96
583.639	50.02
583.977	50.09
584.316	50.17
584.654	50.24
584.993	50.31
585.332	50.37
585.67	50.44
586.008	50.49
586.347	50.57
586.685	50.63
587.024	50.69
587.362	50.76
587.7	50.83
588.038	50.9
588.376	50.97
588.715	51.06
589.053	51.13
589.391	51.21
589.729	51.3
590.067	51.39
590.404	51.46
590.742	51.53
591.08	51.6
591.418	51.67
591.756	51.74
592.093	51.82
592.431	51.89
592.769	51.94
593.106	52
593.444	52.05
593.781	52.1
594.119	52.15
594.456	52.19
594.793	52.23
595.131	52.29
595.468	52.35
595.805	52.4
596.143	52.46
596.48	52.52
596.817	52.58
597.154	52.64
597.491	52.7
597.828	52.76
598.165	52.82
598.502	52.89
598.839	52.95
599.176	53.01
599.512	53.07
599.849	53.12
600.186	53.16
600.523	53.21
600.859	53.24
601.196	53.29
601.532	53.33
601.869	53.37
602.205	53.41
602.542	53.44
602.878	53.48
603.215	53.51
603.551	53.54
603.887	53.56
604.223	53.6
604.56	53.63
604.896	53.66
605.232	53.68
605.568	53.71
605.904	53.72
606.24	53.74
606.576	53.78
606.912	53.81
607.248	53.84
607.583	53.86
607.919	53.89
608.255	53.92
608.591	53.96
608.926	53.98
609.262	54.01
609.597	54.03
609.933	54.05
610.268	54.07
610.604	54.09
610.939	54.1
611.275	54.11
611.61	54.13
611.945	54.13
612.281	54.14
612.616	54.14
612.951	54.16
613.286	54.18
613.621	54.2
613.956	54.22
614.291	54.23
614.626	54.26
614.961	54.28
615.296	54.29
615.631	54.32
615.966	54.33
616.3	54.35
616.635	54.36
616.97	54.38
617.304	54.39
617.639	54.41
617.973	54.42
618.308	54.45
618.642	54.46
618.977	54.49
619.311	54.52
619.646	54.56
619.98	54.6
620.314	54.62
620.648	54.65
620.983	54.67
621.317	54.69
621.651	54.72
621.985	54.74
622.319	54.77
622.653	54.78
622.987	54.8
623.321	54.82
623.655	54.85
623.988	54.87
624.322	54.89
624.656	54.9
624.99	54.92
625.323	54.93
625.657	54.97
625.99	55
626.324	55.03
626.657	55.04
626.991	55.05
627.324	55.07
627.658	55.1
627.991	55.13
628.324	55.14
628.657	55.17
628.991	55.19
629.324	55.21
629.657	55.23
629.99	55.26
630.323	55.29
630.656	55.31
630.989	55.33
631.322	55.35
631.655	55.38
631.987	55.39
632.32	55.41
632.653	55.43
632.986	55.44
633.318	55.44
633.651	55.46
633.984	55.47
634.316	55.48
634.649	55.5
634.981	55.51
635.313	55.53
635.646	55.55
635.978	55.55
636.31	55.57
636.643	55.58
636.975	55.59
637.307	55.62
637.639	55.65
637.971	55.66
638.303	55.7
638.635	55.73
638.967	55.75
639.299	55.77
639.631	55.78
639.963	55.8
640.295	55.82
640.626	55.84
640.958	55.85
641.29	55.86
641.621	55.87
641.953	55.9
642.285	55.91
642.616	55.93
642.948	55.96
643.279	56
643.61	56.01
643.942	56.02
644.273	56.05
644.604	56.07
644.936	56.09
645.267	56.1
645.598	56.13
645.929	56.14
646.26	56.18
646.591	56.2
646.922	56.24
647.253	56.25
647.584	56.28
647.915	56.31
648.245	56.33
648.576	56.36
648.907	56.37
649.238	56.4
649.568	56.42
649.899	56.44
650.229	56.49
650.56	56.52
650.89	56.54
651.221	56.54
651.551	56.57
651.882	56.59
652.212	56.6
652.542	56.61
652.872	56.6
653.203	56.64
653.533	56.65
653.863	56.67
654.193	56.7
654.523	56.72
654.853	56.73
655.183	56.75
655.513	56.76
655.843	56.77
656.172	56.78
656.502	56.79
656.832	56.8
657.162	56.81
657.491	56.81
657.821	56.82
658.15	56.84
658.48	56.85
658.809	56.87
659.139	56.88
659.468	56.9
659.798	56.91
660.127	56.93
660.456	56.96
660.785	56.97
661.115	56.98
661.444	57.01
661.773	57.03
662.102	57.04
662.431	57.05
662.76	57.07
663.089	57.09
663.418	57.09
663.747	57.09
664.076	57.1
664.404	57.11
664.733	57.11
665.062	57.12
665.39	57.14
665.719	57.14
666.048	57.17
666.376	57.2
666.705	57.21
667.033	57.22
667.362	57.22
667.69	57.21
668.018	57.23
