Data from UWBM53665_Reflection_00013.txt Node
Date: Sun May 02 13:14:29 EDT 2021
User: vgr7
Spectrometer: USB2G7710
Scans to average: 10
Trigger mode: 4
Integration Time (sec): 1.000000E-1
Electric dark correction enabled: true
Boxcar width: 20
XAxis mode: Wavelengths
Number of Pixels in Spectrum: 2048
>>>>>Begin Spectral Data<<<<<
177.721	100.83
178.105	100.48
178.488	99.29
178.871	99.01
179.254	97.93
179.636	95.18
180.019	92.45
180.402	90.13
180.785	87.61
181.168	85.91
181.55	81.97
181.933	116.53
182.316	117.48
182.698	117.83
183.081	120.28
183.463	120.91
183.846	121.46
184.228	121.6
184.611	123.69
184.993	127.41
185.376	130.16
185.758	-114.86
186.14	-49.82
186.522	-17.67
186.904	1.31
187.287	14.28
187.669	18.33
188.051	17.9
188.433	21.67
188.815	19
189.197	20.14
189.579	21.25
189.961	20.94
190.342	18.17
190.724	19.82
191.106	19.01
191.488	18.58
191.869	11.74
192.251	13.32
192.633	10.84
193.014	8.34
193.396	9.55
193.777	16.56
194.159	16.95
194.54	14.8
194.922	15.15
195.303	17.83
195.684	19.44
196.065	19.34
196.447	17.54
196.828	15.29
197.209	16.77
197.59	6.33
197.971	5.49
198.352	7.02
198.733	10.14
199.114	8.82
199.495	7.73
199.876	7.18
200.257	6.9
200.638	6.18
201.018	2.75
201.399	3.53
201.78	2.51
202.16	2.59
202.541	4.68
202.922	3.62
203.302	1.01
203.683	0.95
204.063	1.11
204.444	1.23
204.824	2.9
205.204	4.1
205.585	12.69
205.965	12.47
206.345	13.88
206.725	9.88
207.106	10.28
207.486	11.36
207.866	11.37
208.246	12.15
208.626	15.16
209.006	18.8
209.386	14.81
209.766	14.92
210.145	14.02
210.525	12.89
210.905	12.22
211.285	12.51
211.664	11.62
212.044	11.4
212.424	13.38
212.803	8.87
213.183	11.31
213.562	10.74
213.942	9.5
214.321	5.72
214.701	5.87
215.08	7.34
215.459	7.54
215.838	7.31
216.218	8.65
216.597	7.39
216.976	3.76
217.355	4.17
217.734	3.5
218.113	3.52
218.492	3.76
218.871	3.52
219.25	4.19
219.629	4.14
220.008	3.34
220.387	3.64
220.766	3.93
221.144	2.23
221.523	3.7
221.902	4.27
222.28	4.63
222.659	6.25
223.037	5.57
223.416	6.21
223.794	6.87
224.173	6.47
224.551	6.29
224.929	6.95
225.308	7.88
225.686	7.85
226.064	8.09
226.442	8.27
226.821	7.58
227.199	7.66
227.577	7.61
227.955	6.67
228.333	6.46
228.711	6.53
229.089	7.07
229.467	6.74
229.845	7.38
230.222	6.85
230.6	7.39
230.978	7.61
231.356	6.87
231.733	6.68
232.111	6.73
232.488	6.64
232.866	6.32
233.243	5.96
233.621	5.98
233.998	5.89
234.376	5.92
234.753	6
235.13	5.87
235.508	6.41
235.885	6.31
236.262	6.25
236.639	6.43
237.016	6.35
237.393	6.18
237.77	5.96
238.147	5.83
238.524	5.86
238.901	5.83
239.278	5.84
239.655	5.74
240.032	5.62
240.409	5.61
240.785	5.57
241.162	5.66
241.539	5.6
241.915	5.59
242.292	5.63
242.668	5.55
243.045	5.54
243.421	5.46
243.798	5.46
244.174	5.44
244.551	5.39
244.927	5.21
245.303	5.18
245.679	5.22
246.056	5.13
246.432	5.08
246.808	4.87
247.184	4.85
247.56	4.82
247.936	4.86
248.312	4.88
248.688	4.96
249.064	4.91
249.44	4.89
249.815	4.89
250.191	4.83
250.567	4.82
250.943	4.91
251.318	4.92
251.694	4.84
252.069	4.77
252.445	4.77
252.82	4.88
253.196	4.89
253.571	4.84
253.947	4.91
254.322	4.86
254.697	4.97
255.073	4.95
255.448	4.94
255.823	4.91
256.198	4.84
256.573	4.66
256.948	4.65
257.323	4.66
257.698	4.59
258.073	4.58
258.448	4.45
258.823	4.43
259.198	4.4
259.573	4.42
259.948	4.45
260.322	4.41
260.697	4.42
261.072	4.4
261.446	4.38
261.821	4.35
262.195	4.32
262.57	4.31
262.944	4.3
263.319	4.25
263.693	4.27
264.067	4.29
264.442	4.38
264.816	4.35
265.19	4.34
265.564	4.39
265.938	4.35
266.313	4.38
266.687	4.34
267.061	4.35
267.435	4.35
267.809	4.33
268.183	4.3
268.556	4.31
268.93	4.29
269.304	4.27
269.678	4.24
270.051	4.21
270.425	4.21
270.799	4.22
271.172	4.21
271.546	4.22
271.919	4.22
272.293	4.21
272.666	4.22
273.04	4.22
273.413	4.16
273.787	4.14
274.16	4.15
274.533	4.18
274.906	4.17
275.279	4.18
275.653	4.17
276.026	4.15
276.399	4.12
276.772	4.12
277.145	4.15
277.518	4.18
277.891	4.2
278.263	4.22
278.636	4.24
279.009	4.25
279.382	4.23
279.755	4.18
280.127	4.2
280.5	4.21
280.872	4.19
281.245	4.31
281.617	4.34
281.99	4.36
282.362	4.4
282.735	4.38
283.107	4.39
283.479	4.41
283.852	4.44
284.224	4.48
284.596	4.47
284.968	4.36
285.34	4.36
285.713	4.35
286.085	4.3
286.457	4.32
286.829	4.31
287.201	4.32
287.572	4.39
287.944	4.4
288.316	4.45
288.688	4.49
289.06	4.51
289.431	4.52
289.803	4.53
290.175	4.56
290.546	4.59
290.918	4.6
291.289	4.6
291.661	4.64
292.032	4.62
292.403	4.67
292.775	4.77
293.146	4.78
293.517	4.83
293.889	4.92
294.26	4.94
294.631	4.98
295.002	5.05
295.373	5.11
295.744	5.12
296.115	5.15
296.486	5.11
296.857	5.12
297.228	5.15
297.599	5.18
297.97	5.2
298.34	5.25
298.711	5.23
299.082	5.25
299.452	5.31
299.823	5.39
300.194	5.45
300.564	5.49
300.935	5.54
301.305	5.56
301.676	5.59
302.046	5.63
302.416	5.68
302.787	5.72
303.157	5.7
303.527	5.77
303.897	5.83
304.267	5.9
304.637	5.97
305.008	6.05
305.378	6.11
305.748	6.16
306.117	6.29
306.487	6.4
306.857	6.52
307.227	6.59
307.597	6.64
307.967	6.7
308.336	6.77
308.706	6.84
309.076	6.89
309.445	6.94
309.815	6.88
310.184	6.92
310.554	6.93
310.923	7.02
311.293	7.1
311.662	7.16
312.031	7.21
312.401	7.28
312.77	7.31
313.139	7.36
313.508	7.44
313.877	7.44
314.246	7.5
314.616	7.54
314.985	7.53
315.353	7.59
315.722	7.64
316.091	7.7
316.46	7.77
316.829	7.85
317.198	7.94
317.567	8.13
317.935	8.2
318.304	8.34
318.672	8.44
319.041	8.52
319.41	8.57
319.778	8.67
320.147	8.74
320.515	8.82
320.883	8.88
321.252	8.9
321.62	8.99
321.988	9.05
322.357	9.12
322.725	9.23
323.093	9.29
323.461	9.32
323.829	9.39
324.197	9.43
324.565	9.47
324.933	9.53
325.301	9.57
325.669	9.6
326.037	9.64
326.405	9.63
326.772	9.67
327.14	9.7
327.508	9.71
327.875	9.75
328.243	9.8
328.61	9.8
328.978	9.84
329.346	9.86
329.713	9.88
330.08	9.92
330.448	9.94
330.815	9.95
331.182	9.99
331.55	10
331.917	10.04
332.284	10.06
332.651	10.1
333.018	10.12
333.385	10.12
333.752	10.16
334.119	10.19
334.486	10.24
334.853	10.24
335.22	10.28
335.587	10.3
335.954	10.33
336.32	10.36
336.687	10.38
337.054	10.41
337.42	10.45
337.787	10.45
338.153	10.49
338.52	10.55
338.886	10.58
339.253	10.6
339.619	10.6
339.986	10.59
340.352	10.61
340.718	10.64
341.084	10.67
341.451	10.68
341.817	10.69
342.183	10.67
342.549	10.71
342.915	10.72
343.281	10.74
343.647	10.75
344.013	10.78
344.379	10.8
344.745	10.81
345.11	10.82
345.476	10.83
345.842	10.85
346.208	10.83
346.573	10.83
346.939	10.84
347.304	10.84
347.67	10.85
348.035	10.86
348.401	10.87
348.766	10.88
349.132	10.88
349.497	10.88
349.862	10.89
350.228	10.89
350.593	10.88
350.958	10.85
351.323	10.83
351.688	10.83
352.053	10.8
352.418	10.78
352.783	10.76
353.148	10.73
353.513	10.69
353.878	10.68
354.243	10.65
354.608	10.63
354.972	10.62
355.337	10.59
355.702	10.54
356.066	10.51
356.431	10.47
356.795	10.44
357.16	10.4
357.524	10.37
357.889	10.34
358.253	10.31
358.618	10.29
358.982	10.26
359.346	10.23
359.71	10.19
360.075	10.16
360.439	10.12
360.803	10.08
361.167	10.03
361.531	10.01
361.895	9.98
362.259	9.94
362.623	9.9
362.987	9.84
363.351	9.8
363.714	9.75
364.078	9.69
364.442	9.65
364.806	9.61
365.169	9.54
365.533	9.47
365.896	9.41
366.26	9.36
366.623	9.3
366.987	9.24
367.35	9.19
367.714	9.15
368.077	9.09
368.44	9.03
368.803	8.96
369.167	8.89
369.53	8.82
369.893	8.75
370.256	8.67
370.619	8.61
370.982	8.52
371.345	8.44
371.708	8.37
372.071	8.29
372.434	8.23
372.797	8.17
373.159	8.11
373.522	8.03
373.885	7.95
374.247	7.88
374.61	7.81
374.973	7.74
375.335	7.66
375.698	7.6
376.06	7.53
376.423	7.46
376.785	7.4
377.147	7.32
377.51	7.26
377.872	7.2
378.234	7.13
378.596	7.09
378.958	7.04
379.321	6.98
379.683	6.93
380.045	6.86
380.407	6.81
380.769	6.76
381.13	6.7
381.492	6.65
381.854	6.6
382.216	6.54
382.578	6.48
382.939	6.44
383.301	6.38
383.663	6.34
384.024	6.29
384.386	6.24
384.747	6.19
385.109	6.13
385.47	6.08
385.832	6.05
386.193	6
386.554	5.95
386.916	5.91
387.277	5.86
387.638	5.83
387.999	5.79
388.36	5.76
388.721	5.73
389.082	5.68
389.443	5.65
389.804	5.61
390.165	5.58
390.526	5.54
390.887	5.5
391.248	5.46
391.609	5.43
391.969	5.4
392.33	5.37
392.691	5.34
393.051	5.3
393.412	5.25
393.772	5.22
394.133	5.19
394.493	5.14
394.854	5.11
395.214	5.07
395.574	5.03
395.935	5
396.295	4.96
396.655	4.93
397.015	4.9
397.376	4.85
397.736	4.83
398.096	4.79
398.456	4.75
398.816	4.74
399.176	4.7
399.535	4.67
399.895	4.65
400.255	4.62
400.615	4.6
400.975	4.57
401.334	4.54
401.694	4.51
402.054	4.49
402.413	4.45
402.773	4.43
403.132	4.41
403.492	4.39
403.851	4.37
404.211	4.35
404.57	4.34
404.929	4.33
405.288	4.31
405.648	4.3
406.007	4.29
406.366	4.28
406.725	4.28
407.084	4.26
407.443	4.25
407.802	4.23
408.161	4.22
408.52	4.2
408.879	4.19
409.238	4.18
409.596	4.17
409.955	4.17
410.314	4.16
410.673	4.14
411.031	4.14
411.39	4.13
411.748	4.12
412.107	4.11
412.465	4.11
412.824	4.12
413.182	4.13
413.54	4.14
413.899	4.15
414.257	4.16
414.615	4.19
414.974	4.21
415.332	4.24
415.69	4.27
416.048	4.28
416.406	4.31
416.764	4.33
417.122	4.35
417.48	4.37
417.838	4.38
418.195	4.4
418.553	4.41
418.911	4.41
419.269	4.41
419.626	4.39
419.984	4.38
420.342	4.35
420.699	4.33
421.057	4.3
421.414	4.28
421.772	4.26
422.129	4.24
422.486	4.23
422.844	4.22
423.201	4.21
423.558	4.2
423.915	4.19
424.273	4.19
424.63	4.18
424.987	4.17
425.344	4.16
425.701	4.15
426.058	4.15
426.415	4.14
426.772	4.13
427.128	4.12
427.485	4.1
427.842	4.09
428.199	4.07
428.555	4.05
428.912	4.02
429.269	3.99
429.625	3.97
429.982	3.94
430.338	3.91
430.695	3.89
431.051	3.85
431.407	3.83
431.764	3.81
432.12	3.78
432.476	3.78
432.832	3.76
433.189	3.77
433.545	3.77
433.901	3.78
434.257	3.8
434.613	3.82
434.969	3.84
435.325	3.86
435.681	3.9
436.036	3.91
436.392	3.93
436.748	3.94
437.104	3.94
437.459	3.96
437.815	3.98
438.171	3.99
438.526	4.01
438.882	4.04
439.237	4.07
439.593	4.1
439.948	4.13
440.304	4.16
440.659	4.18
441.014	4.2
441.369	4.22
441.725	4.23
442.08	4.25
442.435	4.26
442.79	4.26
443.145	4.26
443.5	4.27
443.855	4.26
444.21	4.26
444.565	4.25
444.92	4.24
445.275	4.23
445.629	4.22
445.984	4.21
446.339	4.2
446.693	4.19
447.048	4.17
447.403	4.16
447.757	4.13
448.112	4.11
448.466	4.09
448.82	4.07
449.175	4.04
449.529	4.02
449.883	4
450.238	3.97
450.592	3.97
450.946	3.96
451.3	3.95
451.654	3.96
452.008	3.95
452.362	3.95
452.716	3.95
453.07	3.96
453.424	3.95
453.778	3.94
454.132	3.93
454.486	3.92
454.839	3.9
455.193	3.88
455.547	3.87
455.9	3.84
456.254	3.82
456.607	3.79
456.961	3.77
457.314	3.75
457.668	3.75
458.021	3.74
458.375	3.74
458.728	3.74
459.081	3.74
459.434	3.75
459.787	3.75
460.141	3.77
460.494	3.77
460.847	3.78
461.2	3.79
461.553	3.8
461.906	3.8
462.259	3.81
462.611	3.82
462.964	3.83
463.317	3.83
463.67	3.84
464.022	3.85
464.375	3.86
464.728	3.87
465.08	3.87
465.433	3.88
465.785	3.88
466.138	3.87
466.49	3.86
466.843	3.86
467.195	3.85
467.547	3.83
467.899	3.82
468.252	3.8
468.604	3.78
468.956	3.77
469.308	3.76
469.66	3.76
470.012	3.75
470.364	3.76
470.716	3.77
471.068	3.79
471.42	3.82
471.772	3.84
472.123	3.85
472.475	3.87
472.827	3.88
473.178	3.89
473.53	3.9
473.882	3.92
474.233	3.94
474.585	3.98
474.936	4.03
475.288	4.11
475.639	4.22
475.99	4.34
476.342	4.48
476.693	4.63
477.044	4.77
477.395	4.93
477.746	5.08
478.097	5.23
478.448	5.39
478.8	5.54
479.15	5.69
479.501	5.82
479.852	5.94
480.203	6.04
480.554	6.15
480.905	6.25
481.255	6.35
481.606	6.44
481.957	6.52
482.307	6.6
482.658	6.68
483.009	6.76
483.359	6.83
483.709	6.91
484.06	6.97
484.41	7.05
484.761	7.11
485.111	7.17
485.461	7.23
485.811	7.29
486.162	7.34
486.512	7.38
486.862	7.42
487.212	7.44
487.562	7.47
487.912	7.48
488.262	7.48
488.612	7.48
488.961	7.47
489.311	7.44
489.661	7.38
490.011	7.31
490.36	7.21
490.71	7.1
491.06	6.99
491.409	6.86
491.759	6.74
492.108	6.61
492.458	6.48
492.807	6.34
493.157	6.2
493.506	6.07
493.855	5.94
494.204	5.83
494.554	5.72
494.903	5.63
495.252	5.54
495.601	5.45
495.95	5.37
496.299	5.3
496.648	5.23
496.997	5.17
497.346	5.12
497.695	5.07
498.043	5.03
498.392	4.99
498.741	4.95
499.09	4.92
499.438	4.9
499.787	4.89
500.135	4.88
500.484	4.88
500.832	4.9
501.181	4.92
501.529	4.96
501.878	5.01
502.226	5.08
502.574	5.15
502.923	5.23
503.271	5.32
503.619	5.41
503.967	5.5
504.315	5.6
504.663	5.7
505.011	5.8
505.359	5.91
505.707	6.02
506.055	6.14
506.403	6.27
506.751	6.4
507.098	6.53
507.446	6.67
507.794	6.82
508.141	6.97
508.489	7.15
508.837	7.33
509.184	7.51
509.531	7.7
509.879	7.9
510.226	8.12
510.574	8.35
510.921	8.6
511.268	8.85
511.616	9.11
511.963	9.38
512.31	9.66
512.657	9.93
513.004	10.21
513.351	10.48
513.698	10.73
514.045	10.98
514.392	11.23
514.739	11.47
515.086	11.7
515.432	11.94
515.779	12.18
516.126	12.43
516.473	12.7
516.819	12.98
517.166	13.29
517.512	13.62
517.859	13.98
518.205	14.36
518.552	14.76
518.898	15.2
519.245	15.69
519.591	16.28
519.937	16.94
520.283	17.7
520.629	18.52
520.976	19.37
521.322	20.26
521.668	21.18
522.014	22.09
522.36	23.01
522.706	23.91
523.052	24.79
523.398	25.64
523.743	26.42
524.089	27.14
524.435	27.82
524.781	28.49
525.126	29.16
525.472	29.81
525.817	30.45
526.163	31.09
526.509	31.7
526.854	32.32
527.199	32.93
527.545	33.54
527.89	34.17
528.235	34.78
528.581	35.37
528.926	35.92
529.271	36.45
529.616	36.96
529.961	37.45
530.306	37.91
530.651	38.35
530.996	38.74
531.341	39.1
531.686	39.45
532.031	39.76
532.376	40.12
532.721	40.49
533.065	40.9
533.41	41.32
533.755	41.7
534.099	42.02
534.444	42.3
534.788	42.55
535.133	42.78
535.477	42.98
535.822	43.14
536.166	43.24
536.51	43.28
536.855	43.25
537.199	43.17
537.543	43.09
537.887	43.05
538.231	43.06
538.576	43.06
538.92	43.03
539.264	43
539.608	42.93
539.951	42.84
540.295	42.74
540.639	42.62
540.983	42.47
541.327	42.32
541.671	42.11
542.014	41.96
542.358	41.82
542.701	41.77
543.045	41.81
543.389	41.89
543.732	41.97
544.075	42.09
544.419	42.22
544.762	42.35
545.105	42.5
545.449	42.68
545.792	42.86
546.135	43.03
546.478	43.14
546.821	43.21
547.165	43.19
547.508	43.1
547.851	42.96
548.194	42.76
548.536	42.51
548.879	42.22
549.222	41.91
549.565	41.57
549.908	41.24
550.25	40.94
550.593	40.7
550.936	40.56
551.278	40.49
551.621	40.45
551.963	40.44
552.306	40.45
552.648	40.49
552.991	40.58
553.333	40.68
553.675	40.82
554.017	41
554.36	41.21
554.702	41.45
555.044	41.73
555.386	42.07
555.728	42.46
556.07	42.77
556.412	43.09
556.754	43.35
557.096	43.52
557.438	43.7
557.78	43.89
558.121	44.08
558.463	44.26
558.805	44.44
559.147	44.63
559.488	44.8
559.83	44.98
560.171	45.16
560.513	45.34
560.854	45.5
561.196	45.66
561.537	45.82
561.878	45.98
562.22	46.13
562.561	46.28
562.902	46.43
563.243	46.59
563.584	46.74
563.925	46.89
564.266	47.05
564.607	47.21
564.948	47.36
565.289	47.51
565.63	47.65
565.971	47.8
566.312	47.94
566.653	48.08
566.993	48.21
567.334	48.34
567.675	48.46
568.015	48.59
568.356	48.7
568.696	48.81
569.037	48.92
569.377	49.03
569.718	49.15
570.058	49.25
570.398	49.35
570.739	49.44
571.079	49.53
571.419	49.61
571.759	49.68
572.099	49.76
572.439	49.82
572.779	49.89
573.119	49.96
573.459	50.02
573.799	50.1
574.139	50.17
574.479	50.24
574.819	50.31
575.158	50.38
575.498	50.44
575.838	50.51
576.177	50.57
576.517	50.64
576.856	50.7
577.196	50.75
577.535	50.81
577.875	50.87
578.214	50.93
578.553	50.98
578.893	51.02
579.232	51.06
579.571	51.11
579.91	51.17
580.25	51.21
580.589	51.27
580.928	51.32
581.267	51.37
581.606	51.44
581.945	51.5
582.283	51.56
582.622	51.62
582.961	51.68
583.3	51.73
583.639	51.79
583.977	51.85
584.316	51.9
584.654	51.97
584.993	52.04
585.332	52.11
585.67	52.18
586.008	52.24
586.347	52.33
586.685	52.41
587.024	52.48
587.362	52.55
587.7	52.62
588.038	52.69
588.376	52.77
588.715	52.84
589.053	52.92
589.391	52.97
589.729	53.04
590.067	53.12
590.404	53.2
590.742	53.29
591.08	53.36
591.418	53.42
591.756	53.48
592.093	53.55
592.431	53.6
592.769	53.66
593.106	53.72
593.444	53.76
593.781	53.81
594.119	53.85
594.456	53.9
594.793	53.94
595.131	53.99
595.468	54.03
595.805	54.08
596.143	54.13
596.48	54.19
596.817	54.25
597.154	54.32
597.491	54.38
597.828	54.43
598.165	54.49
598.502	54.56
598.839	54.61
599.176	54.66
599.512	54.71
599.849	54.76
600.186	54.81
600.523	54.85
600.859	54.89
601.196	54.93
601.532	54.97
601.869	55.01
602.205	55.04
602.542	55.07
602.878	55.11
603.215	55.15
603.551	55.19
603.887	55.22
604.223	55.25
604.56	55.27
604.896	55.3
605.232	55.33
605.568	55.37
605.904	55.39
606.24	55.43
606.576	55.44
606.912	55.47
607.248	55.5
607.583	55.52
607.919	55.55
608.255	55.56
608.591	55.58
608.926	55.6
609.262	55.63
609.597	55.64
609.933	55.66
610.268	55.68
610.604	55.69
610.939	55.69
611.275	55.7
611.61	55.71
611.945	55.73
612.281	55.73
612.616	55.73
612.951	55.73
613.286	55.74
613.621	55.75
613.956	55.75
614.291	55.77
614.626	55.78
614.961	55.79
615.296	55.8
615.631	55.81
615.966	55.81
616.3	55.83
616.635	55.83
616.97	55.85
617.304	55.85
617.639	55.86
617.973	55.86
618.308	55.88
618.642	55.9
618.977	55.9
619.311	55.91
619.646	55.94
619.98	55.97
620.314	56.01
620.648	56.03
620.983	56.06
621.317	56.09
621.651	56.12
621.985	56.15
622.319	56.19
622.653	56.21
622.987	56.22
623.321	56.25
623.655	56.26
623.988	56.29
624.322	56.31
624.656	56.34
624.99	56.35
625.323	56.37
625.657	56.4
625.99	56.42
626.324	56.44
626.657	56.46
626.991	56.48
627.324	56.5
627.658	56.53
627.991	56.54
628.324	56.55
628.657	56.57
628.991	56.57
629.324	56.59
629.657	56.62
629.99	56.63
630.323	56.65
630.656	56.67
630.989	56.67
631.322	56.69
631.655	56.71
631.987	56.73
632.32	56.73
632.653	56.74
632.986	56.75
633.318	56.75
633.651	56.76
633.984	56.77
634.316	56.78
634.649	56.78
634.981	56.79
635.313	56.8
635.646	56.8
635.978	56.8
636.31	56.81
636.643	56.82
636.975	56.83
637.307	56.85
637.639	56.86
637.971	56.87
638.303	56.87
638.635	56.87
638.967	56.88
639.299	56.88
639.631	56.9
639.963	56.91
640.295	56.91
640.626	56.93
640.958	56.94
641.29	56.93
641.621	56.95
641.953	56.98
642.285	57
642.616	57.03
642.948	57.04
643.279	57.05
643.61	57.08
643.942	57.09
644.273	57.1
644.604	57.12
644.936	57.14
645.267	57.14
645.598	57.15
645.929	57.16
646.26	57.19
646.591	57.21
646.922	57.24
647.253	57.24
647.584	57.27
647.915	57.29
648.245	57.32
648.576	57.33
648.907	57.35
649.238	57.36
649.568	57.38
649.899	57.4
650.229	57.41
650.56	57.43
650.89	57.46
651.221	57.46
651.551	57.48
651.882	57.5
652.212	57.53
652.542	57.56
652.872	57.58
653.203	57.58
653.533	57.6
653.863	57.63
654.193	57.64
654.523	57.65
654.853	57.67
655.183	57.68
655.513	57.7
655.843	57.71
656.172	57.74
656.502	57.75
656.832	57.76
657.162	57.75
657.491	57.78
657.821	57.78
658.15	57.8
658.48	57.8
658.809	57.81
659.139	57.85
659.468	57.84
659.798	57.86
660.127	57.85
660.456	57.86
660.785	57.89
661.115	57.9
661.444	57.91
661.773	57.94
662.102	57.94
662.431	57.95
662.76	57.98
663.089	57.99
663.418	58
663.747	58.02
664.076	58.04
664.404	58.03
664.733	58.05
665.062	58.07
665.39	58.08
665.719	58.09
666.048	58.1
666.376	58.1
666.705	58.11
667.033	58.11
667.362	58.1
667.69	58.11
668.018	58.12
668.347	58.11
668.675	58.11
669.003	58.13
