Data from UWBM41002_Reflection_00014.txt Node
Date: Sun May 02 14:15:26 EDT 2021
User: vgr7
Spectrometer: USB2G7710
Scans to average: 10
Trigger mode: 4
Integration Time (sec): 1.000000E-1
Electric dark correction enabled: true
Boxcar width: 20
XAxis mode: Wavelengths
Number of Pixels in Spectrum: 2048
>>>>>Begin Spectral Data<<<<<
177.721	107.59
178.105	68.53
178.488	84.34
178.871	70.66
179.254	41.04
179.636	26.93
180.019	21.96
180.402	19.71
180.785	20.76
181.168	23.46
181.55	18.7
181.933	19.96
182.316	19.21
182.698	17.79
183.081	15.98
183.463	9.92
183.846	6.49
184.228	11.67
184.611	12.5
184.993	12.77
185.376	12.8
185.758	14.73
186.14	13.41
186.522	11.02
186.904	7.4
187.287	8.39
187.669	8.58
188.051	9.65
188.433	8.77
188.815	6.27
189.197	6.67
189.579	4.79
189.961	4.02
190.342	3.52
190.724	3.94
191.106	4.62
191.488	4.89
191.869	3.27
192.251	1
192.633	-0.03
193.014	0.62
193.396	-1.01
193.777	0.21
194.159	1.44
194.54	1.44
194.922	0.97
195.303	1.6
195.684	2.54
196.065	1.91
196.447	2.68
196.828	1.66
197.209	1.28
197.59	-1.86
197.971	-2.63
198.352	-1.27
198.733	1.24
199.114	2.87
199.495	4.98
199.876	3.67
200.257	3.78
200.638	4.01
201.018	5.43
201.399	4.96
201.78	4.45
202.16	5.02
202.541	5.69
202.922	5.34
203.302	6.13
203.683	5.77
204.063	7.36
204.444	7.59
204.824	6.23
205.204	6.54
205.585	8.65
205.965	11.1
206.345	11.24
206.725	10.91
207.106	10.56
207.486	11.62
207.866	12.32
208.246	11.21
208.626	9.77
209.006	10.78
209.386	10.72
209.766	9.02
210.145	8.69
210.525	10.23
210.905	11.02
211.285	9.95
211.664	11.3
212.044	10.07
212.424	10.31
212.803	11.36
213.183	12.18
213.562	12.89
213.942	12.55
214.321	10.67
214.701	9.33
215.08	8.7
215.459	8.87
215.838	8.32
216.218	8.04
216.597	7.47
216.976	8.21
217.355	9.48
217.734	9.93
218.113	9.97
218.492	9.82
218.871	9.91
219.25	10.37
219.629	9.23
220.008	9.8
220.387	10.09
220.766	10.75
221.144	8.94
221.523	8.06
221.902	7.92
222.28	7.71
222.659	8.32
223.037	7.83
223.416	8.14
223.794	8.47
224.173	8.86
224.551	7.72
224.929	8.16
225.308	8.42
225.686	8.87
226.064	8.29
226.442	7.76
226.821	8.25
227.199	7.9
227.577	7.81
227.955	7.79
228.333	7.35
228.711	6.83
229.089	6.06
229.467	5.61
229.845	5.63
230.222	6.11
230.6	6.24
230.978	6.03
231.356	6.18
231.733	5.82
232.111	5.57
232.488	5.64
232.866	5.3
233.243	5.04
233.621	5.02
233.998	4.94
234.376	4.81
234.753	4.55
235.13	4.67
235.508	4.75
235.885	4.72
236.262	4.6
236.639	4.61
237.016	4.62
237.393	4.61
237.77	4.62
238.147	4.48
238.524	4.5
238.901	4.3
239.278	4.29
239.655	4.39
240.032	4.44
240.409	4.39
240.785	4.39
241.162	4.37
241.539	4.38
241.915	4.43
242.292	4.4
242.668	4.38
243.045	4.42
243.421	4.39
243.798	4.38
244.174	4.45
244.551	4.49
244.927	4.51
245.303	4.53
245.679	4.51
246.056	4.45
246.432	4.46
246.808	4.42
247.184	4.41
247.56	4.4
247.936	4.39
248.312	4.39
248.688	4.4
249.064	4.39
249.44	4.4
249.815	4.39
250.191	4.37
250.567	4.37
250.943	4.32
251.318	4.31
251.694	4.32
252.069	4.31
252.445	4.29
252.82	4.25
253.196	4.21
253.571	4.23
253.947	4.21
254.322	4.2
254.697	4.19
255.073	4.14
255.448	4.15
255.823	4.11
256.198	4.1
256.573	4.08
256.948	4.07
257.323	4.02
257.698	3.98
258.073	3.97
258.448	3.94
258.823	3.92
259.198	3.94
259.573	3.91
259.948	3.91
260.322	3.9
260.697	3.85
261.072	3.82
261.446	3.82
261.821	3.8
262.195	3.81
262.57	3.8
262.944	3.8
263.319	3.81
263.693	3.82
264.067	3.82
264.442	3.82
264.816	3.8
265.19	3.81
265.564	3.83
265.938	3.82
266.313	3.84
266.687	3.82
267.061	3.8
267.435	3.79
267.809	3.79
268.183	3.79
268.556	3.8
268.93	3.79
269.304	3.79
269.678	3.79
270.051	3.78
270.425	3.77
270.799	3.75
271.172	3.77
271.546	3.75
271.919	3.76
272.293	3.75
272.666	3.76
273.04	3.77
273.413	3.79
273.787	3.81
274.16	3.82
274.533	3.8
274.906	3.82
275.279	3.82
275.653	3.83
276.026	3.86
276.399	3.87
276.772	3.88
277.145	3.87
277.518	3.88
277.891	3.9
278.263	3.89
278.636	3.87
279.009	3.85
279.382	3.85
279.755	3.85
280.127	3.86
280.5	3.86
280.872	3.87
281.245	3.86
281.617	3.86
281.99	3.89
282.362	3.9
282.735	3.92
283.107	3.94
283.479	3.94
283.852	3.96
284.224	3.96
284.596	3.96
284.968	3.98
285.34	3.99
285.713	4.02
286.085	4.04
286.457	4.06
286.829	4.09
287.201	4.11
287.572	4.12
287.944	4.13
288.316	4.13
288.688	4.15
289.06	4.17
289.431	4.18
289.803	4.21
290.175	4.25
290.546	4.28
290.918	4.31
291.289	4.33
291.661	4.36
292.032	4.38
292.403	4.42
292.775	4.44
293.146	4.47
293.517	4.51
293.889	4.56
294.26	4.6
294.631	4.65
295.002	4.69
295.373	4.72
295.744	4.76
296.115	4.79
296.486	4.83
296.857	4.87
297.228	4.89
297.599	4.94
297.97	4.97
298.34	5
298.711	5.05
299.082	5.07
299.452	5.13
299.823	5.17
300.194	5.22
300.564	5.28
300.935	5.31
301.305	5.34
301.676	5.39
302.046	5.42
302.416	5.46
302.787	5.52
303.157	5.57
303.527	5.64
303.897	5.69
304.267	5.76
304.637	5.82
305.008	5.89
305.378	5.94
305.748	5.99
306.117	6.04
306.487	6.11
306.857	6.19
307.227	6.27
307.597	6.34
307.967	6.4
308.336	6.46
308.706	6.51
309.076	6.55
309.445	6.6
309.815	6.63
310.184	6.68
310.554	6.74
310.923	6.8
311.293	6.84
311.662	6.9
312.031	6.95
312.401	7.03
312.77	7.08
313.139	7.13
313.508	7.2
313.877	7.25
314.246	7.29
314.616	7.33
314.985	7.4
315.353	7.45
315.722	7.48
316.091	7.55
316.46	7.61
316.829	7.67
317.198	7.75
317.567	7.82
317.935	7.89
318.304	7.97
318.672	8.03
319.041	8.12
319.41	8.17
319.778	8.24
320.147	8.3
320.515	8.35
320.883	8.41
321.252	8.47
321.62	8.52
321.988	8.56
322.357	8.61
322.725	8.66
323.093	8.69
323.461	8.74
323.829	8.79
324.197	8.84
324.565	8.88
324.933	8.93
325.301	8.96
325.669	9.01
326.037	9.04
326.405	9.09
326.772	9.13
327.14	9.16
327.508	9.18
327.875	9.22
328.243	9.25
328.61	9.27
328.978	9.3
329.346	9.34
329.713	9.39
330.08	9.41
330.448	9.43
330.815	9.47
331.182	9.49
331.55	9.53
331.917	9.55
332.284	9.57
332.651	9.6
333.018	9.62
333.385	9.64
333.752	9.68
334.119	9.68
334.486	9.73
334.853	9.75
335.22	9.79
335.587	9.82
335.954	9.84
336.32	9.87
336.687	9.88
337.054	9.9
337.42	9.93
337.787	9.96
338.153	10
338.52	10.01
338.886	10.03
339.253	10.06
339.619	10.09
339.986	10.12
340.352	10.16
340.718	10.18
341.084	10.21
341.451	10.23
341.817	10.26
342.183	10.3
342.549	10.32
342.915	10.33
343.281	10.35
343.647	10.38
344.013	10.41
344.379	10.42
344.745	10.44
345.11	10.45
345.476	10.48
345.842	10.49
346.208	10.51
346.573	10.52
346.939	10.53
347.304	10.55
347.67	10.54
348.035	10.55
348.401	10.57
348.766	10.58
349.132	10.59
349.497	10.6
349.862	10.61
350.228	10.61
350.593	10.61
350.958	10.62
351.323	10.63
351.688	10.64
352.053	10.64
352.418	10.64
352.783	10.63
353.148	10.63
353.513	10.63
353.878	10.64
354.243	10.63
354.608	10.61
354.972	10.6
355.337	10.59
355.702	10.57
356.066	10.56
356.431	10.54
356.795	10.51
357.16	10.48
357.524	10.47
357.889	10.46
358.253	10.45
358.618	10.42
358.982	10.4
359.346	10.39
359.71	10.36
360.075	10.34
360.439	10.32
360.803	10.29
361.167	10.27
361.531	10.24
361.895	10.21
362.259	10.18
362.623	10.16
362.987	10.13
363.351	10.09
363.714	10.06
364.078	10.03
364.442	9.98
364.806	9.94
365.169	9.91
365.533	9.88
365.896	9.84
366.26	9.79
366.623	9.75
366.987	9.71
367.35	9.65
367.714	9.6
368.077	9.56
368.44	9.5
368.803	9.45
369.167	9.38
369.53	9.32
369.893	9.25
370.256	9.18
370.619	9.13
370.982	9.07
371.345	9.01
371.708	8.95
372.071	8.89
372.434	8.83
372.797	8.76
373.159	8.7
373.522	8.65
373.885	8.58
374.247	8.53
374.61	8.46
374.973	8.39
375.335	8.32
375.698	8.26
376.06	8.2
376.423	8.14
376.785	8.08
377.147	8.01
377.51	7.95
377.872	7.89
378.234	7.83
378.596	7.76
378.958	7.7
379.321	7.64
379.683	7.59
380.045	7.52
380.407	7.46
380.769	7.4
381.13	7.34
381.492	7.29
381.854	7.24
382.216	7.18
382.578	7.13
382.939	7.08
383.301	7.02
383.663	6.97
384.024	6.92
384.386	6.88
384.747	6.83
385.109	6.78
385.47	6.73
385.832	6.68
386.193	6.63
386.554	6.58
386.916	6.53
387.277	6.48
387.638	6.43
387.999	6.39
388.36	6.35
388.721	6.31
389.082	6.26
389.443	6.23
389.804	6.18
390.165	6.14
390.526	6.11
390.887	6.07
391.248	6.03
391.609	5.99
391.969	5.95
392.33	5.92
392.691	5.88
393.051	5.84
393.412	5.8
393.772	5.76
394.133	5.72
394.493	5.68
394.854	5.64
395.214	5.6
395.574	5.57
395.935	5.53
396.295	5.49
396.655	5.45
397.015	5.41
397.376	5.37
397.736	5.34
398.096	5.3
398.456	5.26
398.816	5.23
399.176	5.19
399.535	5.16
399.895	5.13
400.255	5.09
400.615	5.06
400.975	5.03
401.334	4.99
401.694	4.96
402.054	4.93
402.413	4.9
402.773	4.87
403.132	4.84
403.492	4.82
403.851	4.79
404.211	4.77
404.57	4.75
404.929	4.72
405.288	4.7
405.648	4.69
406.007	4.68
406.366	4.65
406.725	4.63
407.084	4.62
407.443	4.6
407.802	4.59
408.161	4.58
408.52	4.56
408.879	4.55
409.238	4.53
409.596	4.52
409.955	4.51
410.314	4.5
410.673	4.48
411.031	4.47
411.39	4.46
411.748	4.45
412.107	4.44
412.465	4.43
412.824	4.44
413.182	4.45
413.54	4.46
413.899	4.47
414.257	4.48
414.615	4.51
414.974	4.53
415.332	4.55
415.69	4.58
416.048	4.6
416.406	4.62
416.764	4.64
417.122	4.66
417.48	4.68
417.838	4.69
418.195	4.7
418.553	4.72
418.911	4.72
419.269	4.72
419.626	4.71
419.984	4.69
420.342	4.66
420.699	4.64
421.057	4.61
421.414	4.58
421.772	4.56
422.129	4.54
422.486	4.52
422.844	4.51
423.201	4.5
423.558	4.49
423.915	4.48
424.273	4.47
424.63	4.46
424.987	4.45
425.344	4.44
425.701	4.43
426.058	4.42
426.415	4.41
426.772	4.4
427.128	4.39
427.485	4.37
427.842	4.35
428.199	4.33
428.555	4.3
428.912	4.27
429.269	4.24
429.625	4.21
429.982	4.17
430.338	4.14
430.695	4.11
431.051	4.07
431.407	4.04
431.764	4.02
432.12	4
432.476	3.98
432.832	3.97
433.189	3.97
433.545	3.97
433.901	3.98
434.257	3.99
434.613	4.02
434.969	4.04
435.325	4.06
435.681	4.1
436.036	4.12
436.392	4.15
436.748	4.16
437.104	4.17
437.459	4.19
437.815	4.21
438.171	4.23
438.526	4.25
438.882	4.28
439.237	4.31
439.593	4.35
439.948	4.37
440.304	4.41
440.659	4.43
441.014	4.45
441.369	4.47
441.725	4.49
442.08	4.5
442.435	4.51
442.79	4.51
443.145	4.52
443.5	4.52
443.855	4.51
444.21	4.51
444.565	4.51
444.92	4.5
445.275	4.48
445.629	4.47
445.984	4.46
446.339	4.44
446.693	4.43
447.048	4.41
447.403	4.39
447.757	4.36
448.112	4.34
448.466	4.31
448.82	4.28
449.175	4.25
449.529	4.23
449.883	4.2
450.238	4.17
450.592	4.16
450.946	4.15
451.3	4.14
451.654	4.14
452.008	4.14
452.362	4.14
452.716	4.14
453.07	4.13
453.424	4.12
453.778	4.11
454.132	4.1
454.486	4.09
454.839	4.07
455.193	4.05
455.547	4.03
455.9	4.01
456.254	3.99
456.607	3.96
456.961	3.93
457.314	3.91
457.668	3.9
458.021	3.9
458.375	3.89
458.728	3.89
459.081	3.9
459.434	3.9
459.787	3.91
460.141	3.93
460.494	3.94
460.847	3.95
461.2	3.96
461.553	3.97
461.906	3.97
462.259	3.98
462.611	3.99
462.964	4
463.317	4.01
463.67	4.02
464.022	4.03
464.375	4.04
464.728	4.05
465.08	4.06
465.433	4.07
465.785	4.07
466.138	4.07
466.49	4.06
466.843	4.05
467.195	4.03
467.547	4.02
467.899	4.01
468.252	3.99
468.604	3.97
468.956	3.96
469.308	3.95
469.66	3.95
470.012	3.95
470.364	3.96
470.716	3.97
471.068	3.99
471.42	4.02
471.772	4.04
472.123	4.06
472.475	4.07
472.827	4.09
473.178	4.1
473.53	4.11
473.882	4.13
474.233	4.15
474.585	4.19
474.936	4.25
475.288	4.34
475.639	4.45
475.99	4.57
476.342	4.72
476.693	4.87
477.044	5.03
477.395	5.19
477.746	5.35
478.097	5.52
478.448	5.69
478.8	5.85
479.15	6
479.501	6.14
479.852	6.26
480.203	6.38
480.554	6.5
480.905	6.6
481.255	6.7
481.606	6.8
481.957	6.9
482.307	6.99
482.658	7.07
483.009	7.15
483.359	7.23
483.709	7.31
484.06	7.38
484.41	7.45
484.761	7.51
485.111	7.58
485.461	7.64
485.811	7.71
486.162	7.76
486.512	7.81
486.862	7.84
487.212	7.87
487.562	7.89
487.912	7.9
488.262	7.9
488.612	7.9
488.961	7.88
489.311	7.84
489.661	7.78
490.011	7.7
490.36	7.6
490.71	7.49
491.06	7.37
491.409	7.24
491.759	7.11
492.108	6.97
492.458	6.83
492.807	6.68
493.157	6.53
493.506	6.39
493.855	6.26
494.204	6.15
494.554	6.03
494.903	5.93
495.252	5.83
495.601	5.74
495.95	5.66
496.299	5.58
496.648	5.51
496.997	5.44
497.346	5.39
497.695	5.33
498.043	5.28
498.392	5.24
498.741	5.2
499.09	5.16
499.438	5.13
499.787	5.11
500.135	5.1
500.484	5.09
500.832	5.1
501.181	5.12
501.529	5.15
501.878	5.2
502.226	5.26
502.574	5.32
502.923	5.4
503.271	5.47
503.619	5.55
503.967	5.63
504.315	5.71
504.663	5.8
505.011	5.89
505.359	5.97
505.707	6.06
506.055	6.15
506.403	6.25
506.751	6.35
507.098	6.46
507.446	6.57
507.794	6.68
508.141	6.79
508.489	6.92
508.837	7.05
509.184	7.18
509.531	7.31
509.879	7.45
510.226	7.6
510.574	7.75
510.921	7.92
511.268	8.08
511.616	8.25
511.963	8.42
512.31	8.6
512.657	8.78
513.004	8.95
513.351	9.11
513.698	9.27
514.045	9.42
514.392	9.56
514.739	9.69
515.086	9.81
515.432	9.93
515.779	10.05
516.126	10.18
516.473	10.32
516.819	10.47
517.166	10.63
517.512	10.81
517.859	10.99
518.205	11.2
518.552	11.42
518.898	11.66
519.245	11.94
519.591	12.27
519.937	12.67
520.283	13.12
520.629	13.62
520.976	14.14
521.322	14.68
521.668	15.24
522.014	15.81
522.36	16.39
522.706	16.95
523.052	17.49
523.398	18
523.743	18.47
524.089	18.91
524.435	19.31
524.781	19.71
525.126	20.11
525.472	20.5
525.817	20.88
526.163	21.26
526.509	21.63
526.854	21.99
527.199	22.36
527.545	22.73
527.89	23.12
528.235	23.51
528.581	23.87
528.926	24.22
529.271	24.56
529.616	24.88
529.961	25.2
530.306	25.5
530.651	25.78
530.996	26.05
531.341	26.29
531.686	26.52
532.031	26.74
532.376	26.99
532.721	27.26
533.065	27.56
533.41	27.88
533.755	28.18
534.099	28.45
534.444	28.7
534.788	28.92
535.133	29.14
535.477	29.35
535.822	29.52
536.166	29.66
536.51	29.75
536.855	29.8
537.199	29.82
537.543	29.83
537.887	29.88
538.231	29.95
538.576	30.03
538.92	30.1
539.264	30.15
539.608	30.18
539.951	30.21
540.295	30.22
540.639	30.22
540.983	30.21
541.327	30.18
541.671	30.13
542.014	30.11
542.358	30.1
542.701	30.15
543.045	30.26
543.389	30.41
543.732	30.57
544.075	30.75
544.419	30.94
544.762	31.14
545.105	31.36
545.449	31.59
545.792	31.82
546.135	32.06
546.478	32.26
546.821	32.42
547.165	32.52
547.508	32.57
547.851	32.59
548.194	32.56
548.536	32.49
548.879	32.4
549.222	32.28
549.565	32.15
549.908	32.04
550.25	31.93
550.593	31.9
550.936	31.92
551.278	31.99
551.621	32.1
551.963	32.23
552.306	32.37
552.648	32.55
552.991	32.75
553.333	32.98
553.675	33.23
554.017	33.51
554.36	33.81
554.702	34.14
555.044	34.51
555.386	34.92
555.728	35.38
556.07	35.77
556.412	36.16
556.754	36.49
557.096	36.77
557.438	37.04
557.78	37.31
558.121	37.58
558.463	37.85
558.805	38.13
559.147	38.39
559.488	38.65
559.83	38.91
560.171	39.17
560.513	39.42
560.854	39.67
561.196	39.91
561.537	40.15
561.878	40.38
562.22	40.6
562.561	40.82
562.902	41.03
563.243	41.25
563.584	41.48
563.925	41.68
564.266	41.9
564.607	42.11
564.948	42.31
565.289	42.51
565.63	42.72
565.971	42.91
566.312	43.11
566.653	43.3
566.993	43.48
567.334	43.66
567.675	43.82
568.015	43.99
568.356	44.15
568.696	44.3
569.037	44.46
569.377	44.6
569.718	44.74
570.058	44.88
570.398	45.01
570.739	45.14
571.079	45.26
571.419	45.38
571.759	45.49
572.099	45.6
572.439	45.71
572.779	45.81
573.119	45.91
573.459	46.02
573.799	46.13
574.139	46.22
574.479	46.32
574.819	46.42
575.158	46.51
575.498	46.6
575.838	46.69
576.177	46.78
576.517	46.87
576.856	46.96
577.196	47.04
577.535	47.12
577.875	47.2
578.214	47.29
578.553	47.36
578.893	47.44
579.232	47.52
579.571	47.59
579.91	47.67
580.25	47.73
580.589	47.8
580.928	47.86
581.267	47.94
581.606	48.01
581.945	48.08
582.283	48.15
582.622	48.23
582.961	48.31
583.3	48.39
583.639	48.45
583.977	48.52
584.316	48.6
584.654	48.66
584.993	48.74
585.332	48.79
585.67	48.87
586.008	48.93
586.347	49
586.685	49.08
587.024	49.15
587.362	49.22
587.7	49.29
588.038	49.36
588.376	49.44
588.715	49.52
589.053	49.61
589.391	49.68
589.729	49.75
590.067	49.82
590.404	49.9
590.742	49.98
591.08	50.04
591.418	50.11
591.756	50.17
592.093	50.22
592.431	50.26
592.769	50.32
593.106	50.36
593.444	50.41
593.781	50.46
594.119	50.5
594.456	50.54
594.793	50.6
595.131	50.64
595.468	50.69
595.805	50.75
596.143	50.8
596.48	50.85
596.817	50.91
597.154	50.98
597.491	51.05
597.828	51.12
598.165	51.17
598.502	51.24
598.839	51.29
599.176	51.36
599.512	51.42
599.849	51.46
600.186	51.5
600.523	51.53
600.859	51.56
601.196	51.6
601.532	51.63
601.869	51.68
602.205	51.71
602.542	51.75
602.878	51.77
603.215	51.8
603.551	51.84
603.887	51.88
604.223	51.89
604.56	51.92
604.896	51.96
605.232	51.98
605.568	52
605.904	52.03
606.24	52.06
606.576	52.08
606.912	52.1
607.248	52.13
607.583	52.15
607.919	52.18
608.255	52.2
608.591	52.23
608.926	52.26
609.262	52.28
609.597	52.3
609.933	52.31
610.268	52.33
610.604	52.33
610.939	52.33
611.275	52.33
611.61	52.34
611.945	52.34
612.281	52.35
612.616	52.35
612.951	52.35
613.286	52.35
613.621	52.38
613.956	52.39
614.291	52.41
614.626	52.43
614.961	52.46
615.296	52.49
615.631	52.49
615.966	52.5
616.3	52.51
616.635	52.53
616.97	52.54
617.304	52.55
617.639	52.56
617.973	52.58
618.308	52.59
618.642	52.62
618.977	52.64
619.311	52.68
619.646	52.71
619.98	52.74
620.314	52.79
620.648	52.82
620.983	52.84
621.317	52.86
621.651	52.89
621.985	52.93
622.319	52.93
622.653	52.95
622.987	52.97
623.321	53.01
623.655	53.04
623.988	53.06
624.322	53.09
624.656	53.11
624.99	53.13
625.323	53.15
625.657	53.16
625.99	53.18
626.324	53.21
626.657	53.23
626.991	53.25
627.324	53.26
627.658	53.28
627.991	53.3
628.324	53.34
628.657	53.35
628.991	53.36
629.324	53.39
629.657	53.42
629.99	53.43
630.323	53.45
630.656	53.46
630.989	53.48
631.322	53.49
631.655	53.5
631.987	53.53
632.32	53.55
632.653	53.55
632.986	53.57
633.318	53.58
633.651	53.58
633.984	53.6
634.316	53.61
634.649	53.63
634.981	53.65
635.313	53.64
635.646	53.66
635.978	53.68
636.31	53.7
636.643	53.72
636.975	53.71
637.307	53.73
637.639	53.74
637.971	53.76
638.303	53.79
638.635	53.8
638.967	53.81
639.299	53.83
639.631	53.85
639.963	53.86
640.295	53.87
640.626	53.9
640.958	53.93
641.29	53.94
641.621	53.94
641.953	53.95
642.285	53.96
642.616	53.97
642.948	53.99
643.279	53.99
643.61	54.01
643.942	54.04
644.273	54.05
644.604	54.06
644.936	54.09
645.267	54.11
645.598	54.12
645.929	54.12
646.26	54.14
646.591	54.15
646.922	54.16
647.253	54.17
647.584	54.17
647.915	54.18
648.245	54.19
648.576	54.19
648.907	54.21
649.238	54.21
649.568	54.22
649.899	54.22
650.229	54.23
650.56	54.25
650.89	54.27
651.221	54.29
651.551	54.31
651.882	54.32
652.212	54.34
652.542	54.36
652.872	54.37
653.203	54.39
653.533	54.4
653.863	54.41
654.193	54.42
654.523	54.42
654.853	54.44
655.183	54.46
655.513	54.47
655.843	54.48
656.172	54.5
656.502	54.5
656.832	54.52
657.162	54.52
657.491	54.53
657.821	54.56
658.15	54.57
658.48	54.58
658.809	54.59
659.139	54.59
659.468	54.61
659.798	54.63
660.127	54.63
660.456	54.65
660.785	54.66
661.115	54.67
661.444	54.69
661.773	54.71
662.102	54.73
662.431	54.75
662.76	54.76
663.089	54.78
663.418	54.8
663.747	54.81
664.076	54.83
664.404	54.84
664.733	54.84
665.062	54.85
665.39	54.88
665.719	54.87
666.048	54.89
666.376	54.91
666.705	54.93
667.033	54.94
667.362	54.93
667.69	54.94
668.018	54.96
668.347	54.97
668.675	54.99
669.003	55
669.331	55.01
669.659	55
669.987	55.03
