Data from UWBM59056_Reflection_00007.txt Node
Date: Sun May 02 13:44:52 EDT 2021
User: vgr7
Spectrometer: USB2G7710
Scans to average: 10
Trigger mode: 4
Integration Time (sec): 1.000000E-1
Electric dark correction enabled: true
Boxcar width: 20
XAxis mode: Wavelengths
Number of Pixels in Spectrum: 2048
>>>>>Begin Spectral Data<<<<<
177.721	48.25
178.105	16.04
178.488	51.41
178.871	106.15
179.254	87.45
179.636	60.3
180.019	45.11
180.402	33.36
180.785	31.77
181.168	23.59
181.55	22.89
181.933	30.95
182.316	26.77
182.698	22.24
183.081	20.9
183.463	16.99
183.846	10.1
184.228	13.19
184.611	11.44
184.993	14.7
185.376	17.97
185.758	18.62
186.14	16.38
186.522	16.05
186.904	17.26
187.287	17.75
187.669	20.29
188.051	17.49
188.433	15.6
188.815	13.41
189.197	10.75
189.579	9.56
189.961	9.67
190.342	10.36
190.724	13.33
191.106	12.4
191.488	15.08
191.869	16.49
192.251	16.1
192.633	16.68
193.014	18.3
193.396	14.96
193.777	16.63
194.159	16.32
194.54	14.05
194.922	13.32
195.303	11.91
195.684	10.24
196.065	11.48
196.447	11.46
196.828	12.69
197.209	11.34
197.59	7.91
197.971	7.84
198.352	9.45
198.733	10.26
199.114	12.02
199.495	13.97
199.876	13.1
200.257	13.59
200.638	11.31
201.018	11.41
201.399	13.44
201.78	13.77
202.16	12.23
202.541	12.67
202.922	13.23
203.302	12.13
203.683	13.19
204.063	13.26
204.444	13.27
204.824	13.66
205.204	12.64
205.585	13.81
205.965	14.74
206.345	12.32
206.725	13.34
207.106	11.12
207.486	9.4
207.866	9.06
208.246	7.03
208.626	6.2
209.006	5.48
209.386	5.56
209.766	4.75
210.145	5.23
210.525	6.16
210.905	7.88
211.285	8.84
211.664	8.66
212.044	8.02
212.424	6.22
212.803	7.66
213.183	8.44
213.562	10.3
213.942	10.28
214.321	9.32
214.701	7.1
215.08	7.97
215.459	8.08
215.838	7.41
216.218	7.73
216.597	6.4
216.976	5.02
217.355	4.67
217.734	4.87
218.113	3.78
218.492	2.66
218.871	2.11
219.25	3.67
219.629	3.72
220.008	3.37
220.387	3.42
220.766	4.93
221.144	3.34
221.523	3.76
221.902	5.08
222.28	4.22
222.659	5.18
223.037	5.54
223.416	6.4
223.794	7.43
224.173	7.76
224.551	8.68
224.929	9.22
225.308	9.5
225.686	8.74
226.064	8.56
226.442	7.94
226.821	8.15
227.199	8.51
227.577	8.48
227.955	9.26
228.333	8.41
228.711	7.7
229.089	6.78
229.467	6.67
229.845	6.42
230.222	6.94
230.6	6.29
230.978	6.06
231.356	6.28
231.733	6.12
232.111	5.88
232.488	5.68
232.866	5.34
233.243	5.51
233.621	5.65
233.998	5.71
234.376	5.78
234.753	5.3
235.13	5.23
235.508	5.34
235.885	5.25
236.262	5.05
236.639	5.07
237.016	4.86
237.393	4.74
237.77	4.75
238.147	4.67
238.524	4.66
238.901	4.46
239.278	4.43
239.655	4.38
240.032	4.26
240.409	4.12
240.785	4.12
241.162	4.13
241.539	4.07
241.915	4.13
242.292	4.1
242.668	4.07
243.045	4.09
243.421	4.03
243.798	4.04
244.174	4.1
244.551	4.09
244.927	4.07
245.303	4.09
245.679	4.08
246.056	4.07
246.432	4.08
246.808	4.01
247.184	4.05
247.56	4.05
247.936	4.06
248.312	4.05
248.688	4.02
249.064	3.98
249.44	3.97
249.815	3.95
250.191	3.92
250.567	3.94
250.943	3.89
251.318	3.85
251.694	3.85
252.069	3.83
252.445	3.82
252.82	3.8
253.196	3.79
253.571	3.76
253.947	3.76
254.322	3.75
254.697	3.74
255.073	3.71
255.448	3.71
255.823	3.7
256.198	3.68
256.573	3.65
256.948	3.65
257.323	3.62
257.698	3.61
258.073	3.58
258.448	3.54
258.823	3.52
259.198	3.51
259.573	3.48
259.948	3.49
260.322	3.48
260.697	3.48
261.072	3.48
261.446	3.47
261.821	3.44
262.195	3.44
262.57	3.43
262.944	3.42
263.319	3.44
263.693	3.46
264.067	3.45
264.442	3.44
264.816	3.41
265.19	3.41
265.564	3.44
265.938	3.42
266.313	3.41
266.687	3.41
267.061	3.4
267.435	3.4
267.809	3.4
268.183	3.4
268.556	3.39
268.93	3.38
269.304	3.37
269.678	3.38
270.051	3.37
270.425	3.36
270.799	3.38
271.172	3.4
271.546	3.4
271.919	3.4
272.293	3.4
272.666	3.37
273.04	3.38
273.413	3.4
273.787	3.43
274.16	3.44
274.533	3.45
274.906	3.46
275.279	3.45
275.653	3.46
276.026	3.43
276.399	3.43
276.772	3.45
277.145	3.46
277.518	3.47
277.891	3.48
278.263	3.48
278.636	3.47
279.009	3.47
279.382	3.48
279.755	3.48
280.127	3.5
280.5	3.52
280.872	3.52
281.245	3.51
281.617	3.51
281.99	3.52
282.362	3.52
282.735	3.51
283.107	3.51
283.479	3.51
283.852	3.53
284.224	3.53
284.596	3.51
284.968	3.5
285.34	3.5
285.713	3.51
286.085	3.51
286.457	3.52
286.829	3.52
287.201	3.52
287.572	3.52
287.944	3.55
288.316	3.54
288.688	3.53
289.06	3.52
289.431	3.53
289.803	3.55
290.175	3.56
290.546	3.58
290.918	3.6
291.289	3.63
291.661	3.64
292.032	3.64
292.403	3.64
292.775	3.66
293.146	3.67
293.517	3.71
293.889	3.72
294.26	3.73
294.631	3.75
295.002	3.79
295.373	3.8
295.744	3.8
296.115	3.81
296.486	3.84
296.857	3.87
297.228	3.88
297.599	3.92
297.97	3.95
298.34	3.96
298.711	4
299.082	4.01
299.452	4.05
299.823	4.09
300.194	4.11
300.564	4.14
300.935	4.16
301.305	4.18
301.676	4.2
302.046	4.23
302.416	4.26
302.787	4.3
303.157	4.33
303.527	4.38
303.897	4.42
304.267	4.47
304.637	4.5
305.008	4.53
305.378	4.57
305.748	4.6
306.117	4.64
306.487	4.69
306.857	4.73
307.227	4.78
307.597	4.85
307.967	4.89
308.336	4.92
308.706	4.95
309.076	4.99
309.445	5.03
309.815	5.07
310.184	5.09
310.554	5.12
310.923	5.17
311.293	5.2
311.662	5.23
312.031	5.27
312.401	5.32
312.77	5.35
313.139	5.39
313.508	5.46
313.877	5.5
314.246	5.54
314.616	5.58
314.985	5.64
315.353	5.69
315.722	5.73
316.091	5.79
316.46	5.82
316.829	5.88
317.198	5.93
317.567	5.99
317.935	6.05
318.304	6.1
318.672	6.13
319.041	6.2
319.41	6.26
319.778	6.32
320.147	6.37
320.515	6.43
320.883	6.48
321.252	6.53
321.62	6.58
321.988	6.62
322.357	6.68
322.725	6.72
323.093	6.77
323.461	6.8
323.829	6.84
324.197	6.89
324.565	6.94
324.933	6.99
325.301	7.04
325.669	7.09
326.037	7.13
326.405	7.18
326.772	7.23
327.14	7.27
327.508	7.29
327.875	7.34
328.243	7.37
328.61	7.39
328.978	7.43
329.346	7.47
329.713	7.52
330.08	7.54
330.448	7.57
330.815	7.6
331.182	7.63
331.55	7.68
331.917	7.71
332.284	7.74
332.651	7.79
333.018	7.83
333.385	7.87
333.752	7.92
334.119	7.96
334.486	8.01
334.853	8.03
335.22	8.08
335.587	8.12
335.954	8.16
336.32	8.19
336.687	8.22
337.054	8.26
337.42	8.29
337.787	8.33
338.153	8.37
338.52	8.41
338.886	8.43
339.253	8.46
339.619	8.49
339.986	8.52
340.352	8.55
340.718	8.58
341.084	8.62
341.451	8.65
341.817	8.68
342.183	8.72
342.549	8.75
342.915	8.77
343.281	8.81
343.647	8.84
344.013	8.85
344.379	8.87
344.745	8.89
345.11	8.91
345.476	8.95
345.842	8.99
346.208	9.01
346.573	9.02
346.939	9.04
347.304	9.07
347.67	9.09
348.035	9.11
348.401	9.13
348.766	9.16
349.132	9.18
349.497	9.2
349.862	9.23
350.228	9.24
350.593	9.26
350.958	9.29
351.323	9.3
351.688	9.32
352.053	9.33
352.418	9.35
352.783	9.36
353.148	9.36
353.513	9.36
353.878	9.37
354.243	9.38
354.608	9.39
354.972	9.39
355.337	9.39
355.702	9.4
356.066	9.4
356.431	9.4
356.795	9.38
357.16	9.37
357.524	9.38
357.889	9.38
358.253	9.37
358.618	9.36
358.982	9.37
359.346	9.37
359.71	9.37
360.075	9.37
360.439	9.35
360.803	9.34
361.167	9.34
361.531	9.32
361.895	9.31
362.259	9.3
362.623	9.27
362.987	9.26
363.351	9.24
363.714	9.22
364.078	9.2
364.442	9.18
364.806	9.15
365.169	9.12
365.533	9.1
365.896	9.07
366.26	9.05
366.623	9.02
366.987	8.99
367.35	8.96
367.714	8.92
368.077	8.89
368.44	8.86
368.803	8.82
369.167	8.77
369.53	8.72
369.893	8.67
370.256	8.62
370.619	8.57
370.982	8.52
371.345	8.47
371.708	8.43
372.071	8.38
372.434	8.32
372.797	8.27
373.159	8.22
373.522	8.17
373.885	8.12
374.247	8.06
374.61	8
374.973	7.94
375.335	7.89
375.698	7.83
376.06	7.77
376.423	7.71
376.785	7.66
377.147	7.6
377.51	7.55
377.872	7.49
378.234	7.44
378.596	7.39
378.958	7.33
379.321	7.28
379.683	7.23
380.045	7.17
380.407	7.13
380.769	7.08
381.13	7.02
381.492	6.98
381.854	6.93
382.216	6.88
382.578	6.84
382.939	6.8
383.301	6.75
383.663	6.71
384.024	6.66
384.386	6.62
384.747	6.58
385.109	6.54
385.47	6.5
385.832	6.46
386.193	6.42
386.554	6.37
386.916	6.33
387.277	6.29
387.638	6.26
387.999	6.22
388.36	6.19
388.721	6.15
389.082	6.12
389.443	6.09
389.804	6.05
390.165	6.02
390.526	5.98
390.887	5.95
391.248	5.91
391.609	5.88
391.969	5.84
392.33	5.81
392.691	5.78
393.051	5.75
393.412	5.71
393.772	5.68
394.133	5.64
394.493	5.61
394.854	5.57
395.214	5.54
395.574	5.5
395.935	5.47
396.295	5.44
396.655	5.4
397.015	5.36
397.376	5.33
397.736	5.29
398.096	5.26
398.456	5.22
398.816	5.19
399.176	5.16
399.535	5.12
399.895	5.09
400.255	5.06
400.615	5.03
400.975	5
401.334	4.97
401.694	4.95
402.054	4.92
402.413	4.89
402.773	4.87
403.132	4.84
403.492	4.82
403.851	4.79
404.211	4.77
404.57	4.76
404.929	4.74
405.288	4.72
405.648	4.71
406.007	4.69
406.366	4.67
406.725	4.66
407.084	4.65
407.443	4.64
407.802	4.62
408.161	4.61
408.52	4.6
408.879	4.59
409.238	4.58
409.596	4.56
409.955	4.56
410.314	4.54
410.673	4.53
411.031	4.52
411.39	4.51
411.748	4.5
412.107	4.5
412.465	4.49
412.824	4.5
413.182	4.51
413.54	4.52
413.899	4.53
414.257	4.55
414.615	4.58
414.974	4.59
415.332	4.62
415.69	4.65
416.048	4.66
416.406	4.69
416.764	4.71
417.122	4.72
417.48	4.75
417.838	4.76
418.195	4.77
418.553	4.78
418.911	4.79
419.269	4.78
419.626	4.77
419.984	4.75
420.342	4.73
420.699	4.7
421.057	4.67
421.414	4.64
421.772	4.62
422.129	4.6
422.486	4.59
422.844	4.58
423.201	4.57
423.558	4.56
423.915	4.55
424.273	4.54
424.63	4.53
424.987	4.53
425.344	4.51
425.701	4.51
426.058	4.5
426.415	4.49
426.772	4.48
427.128	4.47
427.485	4.45
427.842	4.43
428.199	4.41
428.555	4.38
428.912	4.36
429.269	4.33
429.625	4.3
429.982	4.26
430.338	4.23
430.695	4.21
431.051	4.17
431.407	4.15
431.764	4.12
432.12	4.1
432.476	4.09
432.832	4.07
433.189	4.07
433.545	4.07
433.901	4.08
434.257	4.1
434.613	4.13
434.969	4.15
435.325	4.18
435.681	4.22
436.036	4.23
436.392	4.26
436.748	4.27
437.104	4.28
437.459	4.29
437.815	4.31
438.171	4.33
438.526	4.36
438.882	4.38
439.237	4.42
439.593	4.45
439.948	4.48
440.304	4.51
440.659	4.53
441.014	4.55
441.369	4.57
441.725	4.59
442.08	4.6
442.435	4.61
442.79	4.62
443.145	4.62
443.5	4.62
443.855	4.61
444.21	4.6
444.565	4.59
444.92	4.58
445.275	4.57
445.629	4.55
445.984	4.54
446.339	4.53
446.693	4.51
447.048	4.49
447.403	4.47
447.757	4.44
448.112	4.42
448.466	4.39
448.82	4.36
449.175	4.34
449.529	4.32
449.883	4.3
450.238	4.27
450.592	4.26
450.946	4.24
451.3	4.23
451.654	4.23
452.008	4.23
452.362	4.23
452.716	4.22
453.07	4.22
453.424	4.21
453.778	4.2
454.132	4.18
454.486	4.17
454.839	4.15
455.193	4.13
455.547	4.11
455.9	4.09
456.254	4.07
456.607	4.04
456.961	4.01
457.314	3.99
457.668	3.98
458.021	3.98
458.375	3.97
458.728	3.98
459.081	3.99
459.434	4
459.787	4.01
460.141	4.03
460.494	4.04
460.847	4.05
461.2	4.06
461.553	4.07
461.906	4.08
462.259	4.09
462.611	4.1
462.964	4.11
463.317	4.12
463.67	4.13
464.022	4.15
464.375	4.16
464.728	4.17
465.08	4.17
465.433	4.19
465.785	4.19
466.138	4.19
466.49	4.18
466.843	4.18
467.195	4.17
467.547	4.16
467.899	4.15
468.252	4.13
468.604	4.12
468.956	4.11
469.308	4.1
469.66	4.11
470.012	4.12
470.364	4.13
470.716	4.14
471.068	4.17
471.42	4.2
471.772	4.23
472.123	4.24
472.475	4.26
472.827	4.28
473.178	4.29
473.53	4.3
473.882	4.32
474.233	4.34
474.585	4.38
474.936	4.44
475.288	4.53
475.639	4.64
475.99	4.77
476.342	4.92
476.693	5.08
477.044	5.24
477.395	5.41
477.746	5.57
478.097	5.74
478.448	5.91
478.8	6.07
479.15	6.22
479.501	6.36
479.852	6.49
480.203	6.61
480.554	6.73
480.905	6.84
481.255	6.94
481.606	7.03
481.957	7.13
482.307	7.21
482.658	7.29
483.009	7.37
483.359	7.44
483.709	7.52
484.06	7.59
484.41	7.66
484.761	7.72
485.111	7.79
485.461	7.85
485.811	7.9
486.162	7.95
486.512	7.99
486.862	8.03
487.212	8.05
487.562	8.06
487.912	8.08
488.262	8.08
488.612	8.08
488.961	8.06
489.311	8.02
489.661	7.95
490.011	7.87
490.36	7.77
490.71	7.66
491.06	7.53
491.409	7.4
491.759	7.27
492.108	7.13
492.458	6.98
492.807	6.83
493.157	6.68
493.506	6.54
493.855	6.42
494.204	6.3
494.554	6.18
494.903	6.09
495.252	5.99
495.601	5.91
495.95	5.83
496.299	5.75
496.648	5.7
496.997	5.64
497.346	5.59
497.695	5.55
498.043	5.51
498.392	5.48
498.741	5.46
499.09	5.44
499.438	5.43
499.787	5.43
500.135	5.44
500.484	5.45
500.832	5.48
501.181	5.53
501.529	5.6
501.878	5.69
502.226	5.78
502.574	5.89
502.923	6
503.271	6.12
503.619	6.25
503.967	6.39
504.315	6.52
504.663	6.67
505.011	6.81
505.359	6.97
505.707	7.13
506.055	7.3
506.403	7.47
506.751	7.66
507.098	7.85
507.446	8.05
507.794	8.26
508.141	8.49
508.489	8.72
508.837	8.97
509.184	9.21
509.531	9.47
509.879	9.75
510.226	10.04
510.574	10.35
510.921	10.66
511.268	10.98
511.616	11.33
511.963	11.68
512.31	12.04
512.657	12.39
513.004	12.75
513.351	13.09
513.698	13.42
514.045	13.74
514.392	14.05
514.739	14.35
515.086	14.64
515.432	14.93
515.779	15.23
516.126	15.54
516.473	15.87
516.819	16.22
517.166	16.59
517.512	16.98
517.859	17.4
518.205	17.84
518.552	18.32
518.898	18.82
519.245	19.39
519.591	20.05
519.937	20.81
520.283	21.67
520.629	22.6
520.976	23.56
521.322	24.55
521.668	25.55
522.014	26.55
522.36	27.55
522.706	28.54
523.052	29.5
523.398	30.41
523.743	31.25
524.089	32.02
524.435	32.74
524.781	33.45
525.126	34.14
525.472	34.82
525.817	35.47
526.163	36.11
526.509	36.73
526.854	37.35
527.199	37.95
527.545	38.56
527.89	39.18
528.235	39.78
528.581	40.35
528.926	40.89
529.271	41.39
529.616	41.88
529.961	42.33
530.306	42.74
530.651	43.11
530.996	43.44
531.341	43.76
531.686	44.04
532.031	44.29
532.376	44.58
532.721	44.88
533.065	45.21
533.41	45.55
533.755	45.83
534.099	46.05
534.444	46.21
534.788	46.32
535.133	46.41
535.477	46.47
535.822	46.49
536.166	46.44
536.51	46.33
536.855	46.14
537.199	45.91
537.543	45.68
537.887	45.5
538.231	45.36
538.576	45.24
538.92	45.08
539.264	44.92
539.608	44.72
539.951	44.5
540.295	44.27
540.639	44.03
540.983	43.75
541.327	43.47
541.671	43.19
542.014	42.93
542.358	42.71
542.701	42.61
543.045	42.56
543.389	42.54
543.732	42.55
544.075	42.58
544.419	42.62
544.762	42.68
545.105	42.75
545.449	42.83
545.792	42.94
546.135	43.04
546.478	43.07
546.821	43.05
547.165	42.95
547.508	42.79
547.851	42.56
548.194	42.27
548.536	41.93
548.879	41.55
549.222	41.14
549.565	40.72
549.908	40.3
550.25	39.92
550.593	39.6
550.936	39.37
551.278	39.21
551.621	39.1
551.963	39.01
552.306	38.94
552.648	38.91
552.991	38.93
553.333	38.95
553.675	39.03
554.017	39.13
554.36	39.27
554.702	39.44
555.044	39.64
555.386	39.89
555.728	40.15
556.07	40.37
556.412	40.6
556.754	40.7
557.096	40.81
557.438	40.91
557.78	41.02
558.121	41.13
558.463	41.23
558.805	41.33
559.147	41.43
559.488	41.54
559.83	41.63
560.171	41.73
560.513	41.83
560.854	41.93
561.196	42.01
561.537	42.1
561.878	42.18
562.22	42.27
562.561	42.36
562.902	42.44
563.243	42.54
563.584	42.62
563.925	42.7
564.266	42.79
564.607	42.87
564.948	42.96
565.289	43.04
565.63	43.12
565.971	43.2
566.312	43.28
566.653	43.36
566.993	43.43
567.334	43.51
567.675	43.58
568.015	43.65
568.356	43.71
568.696	43.77
569.037	43.83
569.377	43.9
569.718	43.97
570.058	44.02
570.398	44.07
570.739	44.12
571.079	44.16
571.419	44.2
571.759	44.25
572.099	44.29
572.439	44.32
572.779	44.37
573.119	44.4
573.459	44.43
573.799	44.47
574.139	44.5
574.479	44.54
574.819	44.57
575.158	44.61
575.498	44.64
575.838	44.67
576.177	44.7
576.517	44.73
576.856	44.76
577.196	44.79
577.535	44.82
577.875	44.85
578.214	44.88
578.553	44.91
578.893	44.94
579.232	44.95
579.571	44.97
579.91	44.99
580.25	45.01
580.589	45.03
580.928	45.05
581.267	45.06
581.606	45.09
581.945	45.11
582.283	45.14
582.622	45.17
582.961	45.2
583.3	45.23
583.639	45.25
583.977	45.29
584.316	45.32
584.654	45.36
584.993	45.39
585.332	45.43
585.67	45.46
586.008	45.49
586.347	45.53
586.685	45.56
587.024	45.6
587.362	45.65
587.7	45.68
588.038	45.71
588.376	45.75
588.715	45.8
589.053	45.84
589.391	45.89
589.729	45.94
590.067	46
590.404	46.03
590.742	46.09
591.08	46.12
591.418	46.17
591.756	46.21
592.093	46.25
592.431	46.27
592.769	46.31
593.106	46.34
593.444	46.37
593.781	46.41
594.119	46.43
594.456	46.46
594.793	46.49
595.131	46.53
595.468	46.56
595.805	46.58
596.143	46.62
596.48	46.64
596.817	46.69
597.154	46.72
597.491	46.76
597.828	46.79
598.165	46.83
598.502	46.87
598.839	46.91
599.176	46.93
599.512	46.96
599.849	46.99
600.186	47.01
600.523	47.04
600.859	47.06
601.196	47.08
601.532	47.1
601.869	47.13
602.205	47.15
602.542	47.17
602.878	47.19
603.215	47.21
603.551	47.23
603.887	47.24
604.223	47.27
604.56	47.29
604.896	47.31
605.232	47.33
605.568	47.35
605.904	47.36
606.24	47.36
606.576	47.37
606.912	47.38
607.248	47.4
607.583	47.41
607.919	47.43
608.255	47.44
608.591	47.46
608.926	47.48
609.262	47.5
609.597	47.51
609.933	47.51
610.268	47.51
610.604	47.52
610.939	47.52
611.275	47.52
611.61	47.52
611.945	47.53
612.281	47.52
612.616	47.54
612.951	47.56
613.286	47.57
613.621	47.57
613.956	47.59
614.291	47.6
614.626	47.61
614.961	47.61
615.296	47.63
615.631	47.63
615.966	47.65
616.3	47.65
616.635	47.66
616.97	47.67
617.304	47.68
617.639	47.69
617.973	47.69
618.308	47.69
618.642	47.7
618.977	47.71
619.311	47.72
619.646	47.74
619.98	47.77
620.314	47.78
620.648	47.81
620.983	47.83
621.317	47.85
621.651	47.86
621.985	47.88
622.319	47.91
622.653	47.92
622.987	47.94
623.321	47.95
623.655	47.96
623.988	47.98
624.322	47.99
624.656	48.02
624.99	48.03
625.323	48.04
625.657	48.04
625.99	48.05
626.324	48.06
626.657	48.05
626.991	48.07
627.324	48.08
627.658	48.1
627.991	48.11
628.324	48.11
628.657	48.13
628.991	48.13
629.324	48.15
629.657	48.14
629.99	48.15
630.323	48.16
630.656	48.17
630.989	48.17
631.322	48.18
631.655	48.2
631.987	48.21
632.32	48.21
632.653	48.23
632.986	48.25
633.318	48.25
633.651	48.25
633.984	48.27
634.316	48.27
634.649	48.28
634.981	48.28
635.313	48.29
635.646	48.3
635.978	48.3
636.31	48.3
636.643	48.3
636.975	48.32
637.307	48.33
637.639	48.34
637.971	48.36
638.303	48.36
638.635	48.38
638.967	48.39
639.299	48.42
639.631	48.43
639.963	48.46
640.295	48.47
640.626	48.48
640.958	48.5
641.29	48.51
641.621	48.53
641.953	48.55
642.285	48.57
642.616	48.59
642.948	48.61
643.279	48.63
643.61	48.64
643.942	48.65
644.273	48.67
644.604	48.68
644.936	48.69
645.267	48.7
645.598	48.7
645.929	48.73
646.26	48.74
646.591	48.74
646.922	48.76
647.253	48.78
647.584	48.8
647.915	48.81
648.245	48.82
648.576	48.82
648.907	48.84
649.238	48.84
649.568	48.85
649.899	48.86
650.229	48.86
650.56	48.86
650.89	48.88
651.221	48.88
651.551	48.89
651.882	48.89
652.212	48.9
652.542	48.91
652.872	48.9
653.203	48.91
653.533	48.92
653.863	48.93
654.193	48.93
654.523	48.93
654.853	48.94
655.183	48.95
655.513	48.96
655.843	48.96
656.172	48.98
656.502	48.99
656.832	49
657.162	49.02
657.491	49.04
657.821	49.04
658.15	49.06
658.48	49.07
658.809	49.07
659.139	49.08
659.468	49.07
659.798	49.08
660.127	49.08
660.456	49.09
660.785	49.09
661.115	49.09
661.444	49.1
661.773	49.11
662.102	49.11
662.431	49.13
662.76	49.16
663.089	49.17
663.418	49.2
663.747	49.2
664.076	49.24
664.404	49.25
664.733	49.28
665.062	49.3
665.39	49.32
665.719	49.34
666.048	49.35
666.376	49.38
666.705	49.39
667.033	49.39
667.362	49.41
667.69	49.42
668.018	49.43
668.347	49.43
668.675	49.44
669.003	49.44
669.331	49.45
669.659	49.45
669.987	49.45
670.315	49.46
