Data from UWBM122453_Reflection_00011.txt Node
Date: Sun May 02 12:41:27 EDT 2021
User: vgr7
Spectrometer: USB2G7710
Scans to average: 10
Trigger mode: 4
Integration Time (sec): 1.000000E-1
Electric dark correction enabled: true
Boxcar width: 20
XAxis mode: Wavelengths
Number of Pixels in Spectrum: 2048
>>>>>Begin Spectral Data<<<<<
177.721	100.56
178.105	100.83
178.488	99.84
178.871	99.46
179.254	98.15
179.636	95.9
180.019	93.56
180.402	90.51
180.785	86.81
181.168	83.99
181.55	82.32
181.933	115.2
182.316	117.52
182.698	117.86
183.081	117.34
183.463	118.3
183.846	121.54
184.228	122.4
184.611	124.34
184.993	130.63
185.376	133.65
185.758	-115.46
186.14	-50.16
186.522	-13.31
186.904	0.16
187.287	12.52
187.669	16.31
188.051	16.7
188.433	20.31
188.815	18.87
189.197	21.59
189.579	22.14
189.961	22.08
190.342	17.32
190.724	22.28
191.106	20.74
191.488	21.06
191.869	14.88
192.251	15.15
192.633	13.17
193.014	12.45
193.396	10.01
193.777	17.92
194.159	19.05
194.54	17.1
194.922	17.52
195.303	19.47
195.684	20.14
196.065	21.19
196.447	21.5
196.828	21.84
197.209	23.08
197.59	14.98
197.971	13.88
198.352	13.69
198.733	15.26
199.114	15.19
199.495	16.75
199.876	16.01
200.257	15.1
200.638	16.37
201.018	11.8
201.399	11.64
201.78	7.32
202.16	5.79
202.541	7.09
202.922	6.45
203.302	3.77
203.683	2.82
204.063	1.6
204.444	0.98
204.824	1.99
205.204	2.94
205.585	10.62
205.965	12.04
206.345	12.58
206.725	8.72
207.106	10.23
207.486	11.02
207.866	11.88
208.246	12.03
208.626	13.62
209.006	18.44
209.386	14.88
209.766	15.08
210.145	16.04
210.525	15.77
210.905	17.39
211.285	18.65
211.664	18.08
212.044	18.52
212.424	18.68
212.803	14.28
213.183	15.21
213.562	15.92
213.942	15.7
214.321	13.6
214.701	13.12
215.08	14.46
215.459	14.32
215.838	13.54
216.218	13.71
216.597	12.18
216.976	8.32
217.355	9.3
217.734	9.51
218.113	8.9
218.492	9.6
218.871	10.09
219.25	10.64
219.629	10.03
220.008	11.4
220.387	11.71
220.766	11.59
221.144	11.34
221.523	12.37
221.902	12.83
222.28	12.93
222.659	12.67
223.037	12.64
223.416	12.7
223.794	13.1
224.173	12.39
224.551	11.57
224.929	11.44
225.308	12.4
225.686	11.65
226.064	11.81
226.442	11.14
226.821	10.67
227.199	10.01
227.577	9.4
227.955	8.3
228.333	8.16
228.711	8.23
229.089	8.48
229.467	7.87
229.845	8.14
230.222	7.89
230.6	7.96
230.978	7.84
231.356	7.4
231.733	7.22
232.111	7.33
232.488	7.43
232.866	7.24
233.243	6.74
233.621	6.92
233.998	6.69
234.376	6.9
234.753	6.83
235.13	6.77
235.508	7.04
235.885	6.8
236.262	6.65
236.639	6.62
237.016	6.43
237.393	6.17
237.77	5.98
238.147	5.79
238.524	5.75
238.901	5.69
239.278	5.69
239.655	5.65
240.032	5.48
240.409	5.49
240.785	5.39
241.162	5.47
241.539	5.4
241.915	5.36
242.292	5.31
242.668	5.25
243.045	5.23
243.421	5.13
243.798	5.13
244.174	5.11
244.551	5.07
244.927	4.87
245.303	4.87
245.679	4.91
246.056	4.87
246.432	4.85
246.808	4.61
247.184	4.59
247.56	4.54
247.936	4.55
248.312	4.54
248.688	4.62
249.064	4.56
249.44	4.51
249.815	4.49
250.191	4.45
250.567	4.42
250.943	4.5
251.318	4.53
251.694	4.5
252.069	4.43
252.445	4.43
252.82	4.53
253.196	4.51
253.571	4.49
253.947	4.56
254.322	4.51
254.697	4.62
255.073	4.6
255.448	4.61
255.823	4.58
256.198	4.52
256.573	4.33
256.948	4.3
257.323	4.32
257.698	4.26
258.073	4.24
258.448	4.12
258.823	4.12
259.198	4.08
259.573	4.09
259.948	4.12
260.322	4.09
260.697	4.07
261.072	4.05
261.446	4.02
261.821	3.99
262.195	3.96
262.57	3.93
262.944	3.93
263.319	3.9
263.693	3.93
264.067	3.94
264.442	4.05
264.816	4.04
265.19	4.01
265.564	4.06
265.938	4.03
266.313	4.07
266.687	4
267.061	4
267.435	4
267.809	3.98
268.183	3.96
268.556	4
268.93	4
269.304	3.98
269.678	3.96
270.051	3.94
270.425	3.94
270.799	3.95
271.172	3.94
271.546	3.94
271.919	3.94
272.293	3.92
272.666	3.93
273.04	3.94
273.413	3.9
273.787	3.89
274.16	3.9
274.533	3.92
274.906	3.9
275.279	3.91
275.653	3.91
276.026	3.88
276.399	3.84
276.772	3.84
277.145	3.88
277.518	3.89
277.891	3.92
278.263	3.94
278.636	3.94
279.009	3.96
279.382	3.94
279.755	3.87
280.127	3.9
280.5	3.9
280.872	3.89
281.245	4.01
281.617	4.02
281.99	4.07
282.362	4.1
282.735	4.09
283.107	4.09
283.479	4.11
283.852	4.12
284.224	4.15
284.596	4.13
284.968	4.03
285.34	4.04
285.713	4.02
286.085	3.96
286.457	3.98
286.829	3.97
287.201	4
287.572	4.06
287.944	4.08
288.316	4.13
288.688	4.18
289.06	4.2
289.431	4.22
289.803	4.25
290.175	4.3
290.546	4.36
290.918	4.39
291.289	4.41
291.661	4.47
292.032	4.45
292.403	4.49
292.775	4.61
293.146	4.64
293.517	4.7
293.889	4.8
294.26	4.83
294.631	4.88
295.002	4.96
295.373	5.02
295.744	5.05
296.115	5.09
296.486	5.07
296.857	5.11
297.228	5.14
297.599	5.18
297.97	5.21
298.34	5.26
298.711	5.26
299.082	5.29
299.452	5.37
299.823	5.45
300.194	5.5
300.564	5.53
300.935	5.58
301.305	5.62
301.676	5.64
302.046	5.68
302.416	5.72
302.787	5.78
303.157	5.76
303.527	5.83
303.897	5.88
304.267	5.94
304.637	6.02
305.008	6.08
305.378	6.14
305.748	6.17
306.117	6.29
306.487	6.4
306.857	6.49
307.227	6.54
307.597	6.59
307.967	6.64
308.336	6.7
308.706	6.76
309.076	6.81
309.445	6.86
309.815	6.8
310.184	6.83
310.554	6.82
310.923	6.9
311.293	6.95
311.662	6.98
312.031	7.02
312.401	7.06
312.77	7.09
313.139	7.12
313.508	7.2
313.877	7.17
314.246	7.2
314.616	7.21
314.985	7.19
315.353	7.22
315.722	7.27
316.091	7.32
316.46	7.37
316.829	7.44
317.198	7.5
317.567	7.68
317.935	7.73
318.304	7.82
318.672	7.87
319.041	7.92
319.41	7.98
319.778	8.04
320.147	8.08
320.515	8.12
320.883	8.14
321.252	8.11
321.62	8.18
321.988	8.22
322.357	8.27
322.725	8.36
323.093	8.39
323.461	8.42
323.829	8.44
324.197	8.47
324.565	8.48
324.933	8.51
325.301	8.53
325.669	8.57
326.037	8.59
326.405	8.58
326.772	8.61
327.14	8.62
327.508	8.63
327.875	8.64
328.243	8.68
328.61	8.67
328.978	8.71
329.346	8.74
329.713	8.75
330.08	8.77
330.448	8.8
330.815	8.8
331.182	8.82
331.55	8.83
331.917	8.86
332.284	8.88
332.651	8.91
333.018	8.93
333.385	8.96
333.752	9.01
334.119	9.03
334.486	9.06
334.853	9.05
335.22	9.08
335.587	9.1
335.954	9.14
336.32	9.18
336.687	9.2
337.054	9.22
337.42	9.25
337.787	9.26
338.153	9.31
338.52	9.37
338.886	9.43
339.253	9.43
339.619	9.45
339.986	9.45
340.352	9.46
340.718	9.49
341.084	9.52
341.451	9.53
341.817	9.54
342.183	9.54
342.549	9.58
342.915	9.58
343.281	9.63
343.647	9.65
344.013	9.68
344.379	9.71
344.745	9.73
345.11	9.76
345.476	9.77
345.842	9.79
346.208	9.79
346.573	9.8
346.939	9.83
347.304	9.84
347.67	9.84
348.035	9.87
348.401	9.87
348.766	9.88
349.132	9.9
349.497	9.93
349.862	9.95
350.228	9.97
350.593	9.99
350.958	10
351.323	10
351.688	10.01
352.053	10.01
352.418	10.01
352.783	10.02
353.148	10.01
353.513	10
353.878	10
354.243	10.01
354.608	10
354.972	10.01
355.337	10.01
355.702	9.99
356.066	9.99
356.431	9.98
356.795	9.98
357.16	9.96
357.524	9.95
357.889	9.96
358.253	9.95
358.618	9.93
358.982	9.93
359.346	9.93
359.71	9.91
360.075	9.9
360.439	9.9
360.803	9.88
361.167	9.86
361.531	9.86
361.895	9.85
362.259	9.83
362.623	9.82
362.987	9.8
363.351	9.8
363.714	9.79
364.078	9.77
364.442	9.76
364.806	9.74
365.169	9.71
365.533	9.67
365.896	9.64
366.26	9.62
366.623	9.59
366.987	9.55
367.35	9.54
367.714	9.52
368.077	9.49
368.44	9.46
368.803	9.42
369.167	9.38
369.53	9.35
369.893	9.31
370.256	9.27
370.619	9.24
370.982	9.19
371.345	9.14
371.708	9.1
372.071	9.06
372.434	9.01
372.797	8.99
373.159	8.95
373.522	8.91
373.885	8.86
374.247	8.8
374.61	8.76
374.973	8.71
375.335	8.65
375.698	8.62
376.06	8.57
376.423	8.53
376.785	8.48
377.147	8.42
377.51	8.38
377.872	8.33
378.234	8.27
378.596	8.24
378.958	8.2
379.321	8.16
379.683	8.11
380.045	8.07
380.407	8.02
380.769	7.98
381.13	7.94
381.492	7.9
381.854	7.86
382.216	7.81
382.578	7.77
382.939	7.74
383.301	7.69
383.663	7.65
384.024	7.61
384.386	7.57
384.747	7.52
385.109	7.47
385.47	7.43
385.832	7.39
386.193	7.34
386.554	7.3
386.916	7.25
387.277	7.21
387.638	7.18
387.999	7.13
388.36	7.1
388.721	7.06
389.082	7.03
389.443	6.99
389.804	6.95
390.165	6.92
390.526	6.88
390.887	6.83
391.248	6.79
391.609	6.76
391.969	6.72
392.33	6.69
392.691	6.65
393.051	6.62
393.412	6.57
393.772	6.53
394.133	6.49
394.493	6.45
394.854	6.41
395.214	6.37
395.574	6.32
395.935	6.27
396.295	6.23
396.655	6.19
397.015	6.14
397.376	6.09
397.736	6.05
398.096	6
398.456	5.97
398.816	5.94
399.176	5.89
399.535	5.86
399.895	5.83
400.255	5.79
400.615	5.75
400.975	5.72
401.334	5.69
401.694	5.66
402.054	5.63
402.413	5.58
402.773	5.55
403.132	5.53
403.492	5.5
403.851	5.47
404.211	5.45
404.57	5.43
404.929	5.41
405.288	5.39
405.648	5.37
406.007	5.35
406.366	5.33
406.725	5.32
407.084	5.29
407.443	5.28
407.802	5.25
408.161	5.22
408.52	5.21
408.879	5.19
409.238	5.17
409.596	5.15
409.955	5.15
410.314	5.13
410.673	5.11
411.031	5.09
411.39	5.08
411.748	5.07
412.107	5.06
412.465	5.05
412.824	5.06
413.182	5.06
413.54	5.06
413.899	5.07
414.257	5.08
414.615	5.1
414.974	5.12
415.332	5.15
415.69	5.17
416.048	5.18
416.406	5.2
416.764	5.22
417.122	5.23
417.48	5.24
417.838	5.25
418.195	5.26
418.553	5.27
418.911	5.26
419.269	5.25
419.626	5.23
419.984	5.21
420.342	5.17
420.699	5.14
421.057	5.1
421.414	5.07
421.772	5.04
422.129	5.02
422.486	5.01
422.844	4.99
423.201	4.97
423.558	4.96
423.915	4.94
424.273	4.93
424.63	4.92
424.987	4.9
425.344	4.89
425.701	4.88
426.058	4.86
426.415	4.85
426.772	4.83
427.128	4.82
427.485	4.79
427.842	4.77
428.199	4.75
428.555	4.72
428.912	4.69
429.269	4.65
429.625	4.62
429.982	4.59
430.338	4.55
430.695	4.52
431.051	4.48
431.407	4.45
431.764	4.43
432.12	4.4
432.476	4.39
432.832	4.38
433.189	4.38
433.545	4.38
433.901	4.39
434.257	4.41
434.613	4.44
434.969	4.46
435.325	4.49
435.681	4.53
436.036	4.55
436.392	4.57
436.748	4.58
437.104	4.58
437.459	4.59
437.815	4.61
438.171	4.63
438.526	4.65
438.882	4.68
439.237	4.71
439.593	4.75
439.948	4.78
440.304	4.81
440.659	4.83
441.014	4.85
441.369	4.87
441.725	4.89
442.08	4.9
442.435	4.91
442.79	4.91
443.145	4.9
443.5	4.9
443.855	4.89
444.21	4.88
444.565	4.87
444.92	4.85
445.275	4.84
445.629	4.82
445.984	4.81
446.339	4.79
446.693	4.78
447.048	4.75
447.403	4.73
447.757	4.7
448.112	4.67
448.466	4.64
448.82	4.61
449.175	4.58
449.529	4.56
449.883	4.53
450.238	4.49
450.592	4.48
450.946	4.47
451.3	4.46
451.654	4.47
452.008	4.46
452.362	4.46
452.716	4.46
453.07	4.45
453.424	4.44
453.778	4.43
454.132	4.41
454.486	4.39
454.839	4.37
455.193	4.35
455.547	4.33
455.9	4.3
456.254	4.28
456.607	4.25
456.961	4.23
457.314	4.21
457.668	4.21
458.021	4.2
458.375	4.2
458.728	4.21
459.081	4.21
459.434	4.23
459.787	4.24
460.141	4.26
460.494	4.27
460.847	4.29
461.2	4.3
461.553	4.32
461.906	4.33
462.259	4.35
462.611	4.36
462.964	4.38
463.317	4.4
463.67	4.42
464.022	4.43
464.375	4.45
464.728	4.46
465.08	4.48
465.433	4.49
465.785	4.51
466.138	4.51
466.49	4.51
466.843	4.5
467.195	4.5
467.547	4.5
467.899	4.49
468.252	4.48
468.604	4.47
468.956	4.47
469.308	4.47
469.66	4.48
470.012	4.48
470.364	4.5
470.716	4.52
471.068	4.55
471.42	4.58
471.772	4.61
472.123	4.63
472.475	4.65
472.827	4.67
473.178	4.68
473.53	4.7
473.882	4.72
474.233	4.74
474.585	4.78
474.936	4.84
475.288	4.93
475.639	5.05
475.99	5.19
476.342	5.35
476.693	5.52
477.044	5.68
477.395	5.85
477.746	6.03
478.097	6.21
478.448	6.39
478.8	6.56
479.15	6.72
479.501	6.86
479.852	6.99
480.203	7.11
480.554	7.23
480.905	7.34
481.255	7.45
481.606	7.55
481.957	7.64
482.307	7.73
482.658	7.82
483.009	7.9
483.359	7.98
483.709	8.06
484.06	8.14
484.41	8.22
484.761	8.28
485.111	8.35
485.461	8.42
485.811	8.49
486.162	8.55
486.512	8.6
486.862	8.64
487.212	8.67
487.562	8.7
487.912	8.71
488.262	8.72
488.612	8.72
488.961	8.71
489.311	8.68
489.661	8.62
490.011	8.54
490.36	8.44
490.71	8.32
491.06	8.2
491.409	8.07
491.759	7.93
492.108	7.8
492.458	7.65
492.807	7.5
493.157	7.35
493.506	7.22
493.855	7.09
494.204	6.97
494.554	6.87
494.903	6.78
495.252	6.69
495.601	6.61
495.95	6.54
496.299	6.49
496.648	6.43
496.997	6.39
497.346	6.35
497.695	6.32
498.043	6.3
498.392	6.28
498.741	6.27
499.09	6.27
499.438	6.27
499.787	6.28
500.135	6.3
500.484	6.34
500.832	6.39
501.181	6.46
501.529	6.54
501.878	6.64
502.226	6.76
502.574	6.89
502.923	7.02
503.271	7.16
503.619	7.31
503.967	7.47
504.315	7.62
504.663	7.78
505.011	7.94
505.359	8.1
505.707	8.27
506.055	8.45
506.403	8.63
506.751	8.82
507.098	9.01
507.446	9.22
507.794	9.43
508.141	9.65
508.489	9.89
508.837	10.12
509.184	10.35
509.531	10.6
509.879	10.86
510.226	11.13
510.574	11.4
510.921	11.68
511.268	11.98
511.616	12.28
511.963	12.59
512.31	12.91
512.657	13.22
513.004	13.53
513.351	13.83
513.698	14.11
514.045	14.38
514.392	14.64
514.739	14.89
515.086	15.12
515.432	15.36
515.779	15.6
516.126	15.85
516.473	16.13
516.819	16.41
517.166	16.71
517.512	17.03
517.859	17.37
518.205	17.73
518.552	18.12
518.898	18.55
519.245	19.02
519.591	19.59
519.937	20.25
520.283	21
520.629	21.82
520.976	22.67
521.322	23.55
521.668	24.44
522.014	25.33
522.36	26.22
522.706	27.09
523.052	27.93
523.398	28.74
523.743	29.48
524.089	30.16
524.435	30.8
524.781	31.42
525.126	32.02
525.472	32.61
525.817	33.19
526.163	33.76
526.509	34.3
526.854	34.85
527.199	35.39
527.545	35.93
527.89	36.49
528.235	37.03
528.581	37.55
528.926	38.03
529.271	38.5
529.616	38.94
529.961	39.34
530.306	39.7
530.651	40.03
530.996	40.35
531.341	40.65
531.686	40.91
532.031	41.16
532.376	41.43
532.721	41.73
533.065	42.07
533.41	42.41
533.755	42.69
534.099	42.91
534.444	43.09
534.788	43.24
535.133	43.37
535.477	43.45
535.822	43.5
536.166	43.5
536.51	43.43
536.855	43.3
537.199	43.14
537.543	42.97
537.887	42.84
538.231	42.77
538.576	42.69
538.92	42.6
539.264	42.5
539.608	42.37
539.951	42.23
540.295	42.06
540.639	41.88
540.983	41.68
541.327	41.48
541.671	41.28
542.014	41.09
542.358	40.94
542.701	40.9
543.045	40.91
543.389	40.95
543.732	41.01
544.075	41.1
544.419	41.21
544.762	41.32
545.105	41.44
545.449	41.59
545.792	41.76
546.135	41.91
546.478	42.02
546.821	42.06
547.165	42.02
547.508	41.92
547.851	41.77
548.194	41.57
548.536	41.31
548.879	41.01
549.222	40.68
549.565	40.34
549.908	40.01
550.25	39.72
550.593	39.49
550.936	39.34
551.278	39.26
551.621	39.22
551.963	39.21
552.306	39.21
552.648	39.27
552.991	39.35
553.333	39.45
553.675	39.59
554.017	39.77
554.36	39.98
554.702	40.23
555.044	40.52
555.386	40.86
555.728	41.18
556.07	41.48
556.412	41.77
556.754	41.94
557.096	42.11
557.438	42.28
557.78	42.45
558.121	42.62
558.463	42.78
558.805	42.95
559.147	43.13
559.488	43.3
559.83	43.46
560.171	43.62
560.513	43.77
560.854	43.92
561.196	44.08
561.537	44.22
561.878	44.38
562.22	44.52
562.561	44.66
562.902	44.81
563.243	44.96
563.584	45.1
563.925	45.24
564.266	45.37
564.607	45.52
564.948	45.66
565.289	45.8
565.63	45.94
565.971	46.08
566.312	46.22
566.653	46.33
566.993	46.46
567.334	46.58
567.675	46.7
568.015	46.83
568.356	46.94
568.696	47.04
569.037	47.15
569.377	47.25
569.718	47.35
570.058	47.45
570.398	47.54
570.739	47.63
571.079	47.71
571.419	47.8
571.759	47.88
572.099	47.94
572.439	48.02
572.779	48.09
573.119	48.16
573.459	48.21
573.799	48.28
574.139	48.35
574.479	48.42
574.819	48.49
575.158	48.55
575.498	48.63
575.838	48.68
576.177	48.74
576.517	48.8
576.856	48.86
577.196	48.91
577.535	48.97
577.875	49.02
578.214	49.08
578.553	49.13
578.893	49.17
579.232	49.22
579.571	49.27
579.91	49.3
580.25	49.36
580.589	49.41
580.928	49.45
581.267	49.5
581.606	49.55
581.945	49.6
582.283	49.67
582.622	49.73
582.961	49.79
583.3	49.86
583.639	49.92
583.977	49.97
584.316	50.03
584.654	50.08
584.993	50.14
585.332	50.2
585.67	50.25
586.008	50.32
586.347	50.39
586.685	50.45
587.024	50.51
587.362	50.59
587.7	50.65
588.038	50.72
588.376	50.79
588.715	50.85
589.053	50.93
589.391	50.99
589.729	51.07
590.067	51.15
590.404	51.23
590.742	51.3
591.08	51.37
591.418	51.43
591.756	51.51
592.093	51.58
592.431	51.64
592.769	51.7
593.106	51.75
593.444	51.8
593.781	51.84
594.119	51.88
594.456	51.93
594.793	51.97
595.131	52.02
595.468	52.06
595.805	52.12
596.143	52.18
596.48	52.23
596.817	52.28
597.154	52.34
597.491	52.39
597.828	52.47
598.165	52.53
598.502	52.6
598.839	52.64
599.176	52.69
599.512	52.75
599.849	52.8
600.186	52.85
600.523	52.89
600.859	52.94
601.196	52.97
601.532	53.02
601.869	53.06
602.205	53.11
602.542	53.15
602.878	53.17
603.215	53.22
603.551	53.25
603.887	53.28
604.223	53.31
604.56	53.33
604.896	53.37
605.232	53.4
605.568	53.43
605.904	53.45
606.24	53.48
606.576	53.51
606.912	53.54
607.248	53.57
607.583	53.59
607.919	53.62
608.255	53.64
608.591	53.68
608.926	53.71
609.262	53.73
609.597	53.74
609.933	53.76
610.268	53.78
610.604	53.8
610.939	53.83
611.275	53.84
611.61	53.84
611.945	53.85
612.281	53.87
612.616	53.89
612.951	53.9
613.286	53.91
613.621	53.92
613.956	53.93
614.291	53.95
614.626	53.97
614.961	53.98
615.296	53.99
615.631	54.01
615.966	54.02
616.3	54.04
616.635	54.07
616.97	54.08
617.304	54.09
617.639	54.11
617.973	54.14
618.308	54.18
618.642	54.18
618.977	54.21
619.311	54.23
619.646	54.26
619.98	54.29
620.314	54.33
620.648	54.37
620.983	54.4
621.317	54.44
621.651	54.48
621.985	54.5
622.319	54.52
622.653	54.54
622.987	54.58
623.321	54.59
623.655	54.61
623.988	54.63
624.322	54.66
624.656	54.68
624.99	54.7
625.323	54.73
625.657	54.75
625.99	54.77
626.324	54.81
626.657	54.84
626.991	54.86
627.324	54.88
627.658	54.91
627.991	54.92
628.324	54.95
628.657	54.99
628.991	55.02
629.324	55.03
629.657	55.07
629.99	55.08
630.323	55.09
630.656	55.1
630.989	55.12
631.322	55.14
631.655	55.15
631.987	55.15
632.32	55.18
632.653	55.2
632.986	55.23
633.318	55.25
633.651	55.27
633.984	55.28
634.316	55.31
634.649	55.32
634.981	55.34
635.313	55.36
635.646	55.38
635.978	55.39
636.31	55.41
636.643	55.44
636.975	55.46
637.307	55.48
637.639	55.5
637.971	55.52
638.303	55.54
638.635	55.56
638.967	55.58
639.299	55.61
639.631	55.64
639.963	55.65
640.295	55.67
640.626	55.68
640.958	55.71
641.29	55.72
641.621	55.75
641.953	55.76
642.285	55.78
642.616	55.8
642.948	55.82
643.279	55.85
643.61	55.87
643.942	55.9
644.273	55.91
644.604	55.92
644.936	55.94
645.267	55.96
645.598	55.98
645.929	56
646.26	56.02
646.591	56.03
646.922	56.07
647.253	56.09
647.584	56.08
647.915	56.08
648.245	56.12
648.576	56.14
648.907	56.15
649.238	56.16
649.568	56.18
649.899	56.19
650.229	56.2
650.56	56.24
650.89	56.28
651.221	56.3
651.551	56.32
651.882	56.32
652.212	56.36
652.542	56.35
652.872	56.37
653.203	56.39
653.533	56.42
653.863	56.43
654.193	56.46
654.523	56.46
654.853	56.49
655.183	56.49
655.513	56.51
655.843	56.53
656.172	56.55
656.502	56.56
656.832	56.55
657.162	56.56
657.491	56.6
657.821	56.63
658.15	56.65
658.48	56.66
658.809	56.68
659.139	56.7
659.468	56.72
659.798	56.74
660.127	56.75
660.456	56.76
660.785	56.77
661.115	56.79
661.444	56.82
661.773	56.82
662.102	56.84
662.431	56.85
662.76	56.87
663.089	56.88
663.418	56.9
663.747	56.91
664.076	56.93
664.404	56.93
664.733	56.95
665.062	56.98
665.39	57.01
665.719	57.01
666.048	57.02
666.376	57.03
666.705	57.04
667.033	57.05
667.362	57.06
667.69	57.08
668.018	57.11
668.347	57.12
668.675	57.14
669.003	57.15
669.331	57.17
669.659	57.18
