Data from UWBM122617_Reflection_00009.txt Node
Date: Sun May 02 12:17:43 EDT 2021
User: vgr7
Spectrometer: USB2G7710
Scans to average: 10
Trigger mode: 4
Integration Time (sec): 1.000000E-1
Electric dark correction enabled: true
Boxcar width: 10
XAxis mode: Wavelengths
Number of Pixels in Spectrum: 2048
>>>>>Begin Spectral Data<<<<<
177.721	-1985
178.105	-581.82
178.488	-41.39
178.871	-169.62
179.254	405.77
179.636	449.09
180.019	-29.91
180.402	-10
180.785	13.51
181.168	-39.74
181.55	-15.3
181.933	-56.65
182.316	-39.05
182.698	-50
183.081	-29.1
183.463	-36.07
183.846	-9.96
184.228	-35
184.611	-11.29
184.993	6.49
185.376	11.87
185.758	5.17
186.14	5.59
186.522	7.43
186.904	8.1
187.287	13.83
187.669	8.15
188.051	3.7
188.433	5.41
188.815	6.22
189.197	11.06
189.579	7.9
189.961	13.29
190.342	13.53
190.724	16.2
191.106	13.62
191.488	13.94
191.869	9.94
192.251	12.43
192.633	7.99
193.014	6.52
193.396	6.42
193.777	10.09
194.159	10.03
194.54	4.48
194.922	2.77
195.303	3.62
195.684	6.05
196.065	2.35
196.447	-3.78
196.828	-5.7
197.209	-8.49
197.59	-11.17
197.971	-13.14
198.352	-13.17
198.733	-8.9
199.114	-8.32
199.495	-9.79
199.876	-7.5
200.257	-7.61
200.638	-5.05
201.018	-4.77
201.399	-7.94
201.78	-11.56
202.16	-16.06
202.541	-14.03
202.922	-10.46
203.302	-11.11
203.683	-14.37
204.063	-15.79
204.444	-11.47
204.824	-11.44
205.204	-8.78
205.585	-7.72
205.965	-9.46
206.345	-8.34
206.725	-12.64
207.106	-9.08
207.486	-8.52
207.866	-4.13
208.246	-4.12
208.626	-5.15
209.006	-5.44
209.386	-5.26
209.766	-3.77
210.145	0.37
210.525	3.12
210.905	0.2
211.285	0.37
211.664	1.03
212.044	4.57
212.424	4.8
212.803	4.49
213.183	5.18
213.562	6.05
213.942	6.16
214.321	1.4
214.701	-3.58
215.08	-5.43
215.459	-5.43
215.838	-8.49
216.218	-7.91
216.597	-7.67
216.976	-8.67
217.355	-7.87
217.734	-4.94
218.113	-5.81
218.492	-7.96
218.871	-10.76
219.25	-11.11
219.629	-10.36
220.008	-10.8
220.387	-11.14
220.766	-10.45
221.144	-12.12
221.523	-9.2
221.902	-7.5
222.28	-4.44
222.659	-2.47
223.037	-0.63
223.416	0.02
223.794	-0.85
224.173	0.02
224.551	0.46
224.929	-1.13
225.308	0.4
225.686	0.54
226.064	1
226.442	0.86
226.821	2.7
227.199	2.01
227.577	0.81
227.955	1.6
228.333	2.94
228.711	2.46
229.089	3.39
229.467	2.82
229.845	4.93
230.222	5.67
230.6	6.42
230.978	5.91
231.356	5.18
231.733	5.97
232.111	5.91
232.488	5.65
232.866	5.68
233.243	4.64
233.621	4.42
233.998	4.39
234.376	4.82
234.753	5.55
235.13	5.75
235.508	7.28
235.885	7.24
236.262	6.41
236.639	6.63
237.016	6.76
237.393	6.72
237.77	6.07
238.147	5.63
238.524	5.72
238.901	6
239.278	6.07
239.655	5.84
240.032	5.63
240.409	5.65
240.785	5.85
241.162	6.24
241.539	6.17
241.915	6.14
242.292	6.22
242.668	6.09
243.045	6.11
243.421	5.93
243.798	5.84
244.174	5.76
244.551	5.66
244.927	5.53
245.303	5.52
245.679	5.51
246.056	5.41
246.432	5.44
246.808	5.42
247.184	5.42
247.56	5.44
247.936	5.46
248.312	5.46
248.688	5.49
249.064	5.36
249.44	5.36
249.815	5.37
250.191	5.24
250.567	5.17
250.943	5.16
251.318	5.18
251.694	5.11
252.069	5.05
252.445	5.14
252.82	5.12
253.196	5.11
253.571	5.08
253.947	5.2
254.322	5.11
254.697	5.09
255.073	5.05
255.448	5
255.823	4.94
256.198	4.87
256.573	4.72
256.948	4.8
257.323	4.82
257.698	4.8
258.073	4.84
258.448	4.9
258.823	4.88
259.198	4.89
259.573	4.92
259.948	4.99
260.322	4.99
260.697	4.98
261.072	4.94
261.446	4.89
261.821	4.92
262.195	4.87
262.57	4.85
262.944	4.86
263.319	4.86
263.693	4.87
264.067	4.88
264.442	4.93
264.816	4.88
265.19	4.85
265.564	4.84
265.938	4.77
266.313	4.75
266.687	4.66
267.061	4.62
267.435	4.56
267.809	4.48
268.183	4.49
268.556	4.53
268.93	4.51
269.304	4.47
269.678	4.38
270.051	4.4
270.425	4.39
270.799	4.41
271.172	4.4
271.546	4.41
271.919	4.44
272.293	4.4
272.666	4.42
273.04	4.43
273.413	4.34
273.787	4.35
274.16	4.33
274.533	4.37
274.906	4.34
275.279	4.42
275.653	4.47
276.026	4.38
276.399	4.34
276.772	4.41
277.145	4.49
277.518	4.53
277.891	4.53
278.263	4.54
278.636	4.53
279.009	4.57
279.382	4.53
279.755	4.53
280.127	4.56
280.5	4.52
280.872	4.49
281.245	4.63
281.617	4.62
281.99	4.65
282.362	4.66
282.735	4.64
283.107	4.59
283.479	4.61
283.852	4.64
284.224	4.65
284.596	4.63
284.968	4.63
285.34	4.6
285.713	4.64
286.085	4.64
286.457	4.64
286.829	4.62
287.201	4.62
287.572	4.63
287.944	4.65
288.316	4.71
288.688	4.75
289.06	4.73
289.431	4.74
289.803	4.72
290.175	4.76
290.546	4.77
290.918	4.8
291.289	4.78
291.661	4.78
292.032	4.75
292.403	4.72
292.775	4.7
293.146	4.69
293.517	4.69
293.889	4.69
294.26	4.68
294.631	4.68
295.002	4.71
295.373	4.72
295.744	4.7
296.115	4.69
296.486	4.65
296.857	4.66
297.228	4.69
297.599	4.68
297.97	4.63
298.34	4.64
298.711	4.64
299.082	4.63
299.452	4.62
299.823	4.67
300.194	4.72
300.564	4.73
300.935	4.77
301.305	4.76
301.676	4.74
302.046	4.74
302.416	4.76
302.787	4.77
303.157	4.79
303.527	4.83
303.897	4.83
304.267	4.85
304.637	4.86
305.008	4.91
305.378	4.98
305.748	5.03
306.117	5.08
306.487	5.11
306.857	5.15
307.227	5.18
307.597	5.16
307.967	5.16
308.336	5.21
308.706	5.23
309.076	5.23
309.445	5.28
309.815	5.27
310.184	5.31
310.554	5.34
310.923	5.31
311.293	5.32
311.662	5.35
312.031	5.37
312.401	5.36
312.77	5.35
313.139	5.36
313.508	5.36
313.877	5.38
314.246	5.39
314.616	5.47
314.985	5.52
315.353	5.56
315.722	5.56
316.091	5.55
316.46	5.6
316.829	5.67
317.198	5.72
317.567	5.75
317.935	5.78
318.304	5.79
318.672	5.87
319.041	5.9
319.41	5.94
319.778	6.03
320.147	6.11
320.515	6.12
320.883	6.15
321.252	6.2
321.62	6.2
321.988	6.23
322.357	6.24
322.725	6.24
323.093	6.3
323.461	6.34
323.829	6.36
324.197	6.38
324.565	6.39
324.933	6.37
325.301	6.39
325.669	6.44
326.037	6.45
326.405	6.45
326.772	6.46
327.14	6.48
327.508	6.48
327.875	6.49
328.243	6.53
328.61	6.56
328.978	6.57
329.346	6.57
329.713	6.54
330.08	6.53
330.448	6.58
330.815	6.55
331.182	6.56
331.55	6.61
331.917	6.59
332.284	6.61
332.651	6.62
333.018	6.7
333.385	6.68
333.752	6.73
334.119	6.74
334.486	6.78
334.853	6.78
335.22	6.8
335.587	6.79
335.954	6.81
336.32	6.8
336.687	6.8
337.054	6.84
337.42	6.88
337.787	6.88
338.153	6.9
338.52	6.95
338.886	6.96
339.253	6.96
339.619	6.98
339.986	7.01
340.352	7.03
340.718	7.02
341.084	7.03
341.451	7.02
341.817	7.03
342.183	7.07
342.549	7.07
342.915	7.08
343.281	7.09
343.647	7.08
344.013	7.09
344.379	7.1
344.745	7.11
345.11	7.13
345.476	7.13
345.842	7.13
346.208	7.11
346.573	7.12
346.939	7.14
347.304	7.15
347.67	7.12
348.035	7.15
348.401	7.12
348.766	7.13
349.132	7.16
349.497	7.15
349.862	7.11
350.228	7.1
350.593	7.1
350.958	7.1
351.323	7.12
351.688	7.13
352.053	7.12
352.418	7.12
352.783	7.1
353.148	7.1
353.513	7.07
353.878	7.07
354.243	7.07
354.608	7.02
354.972	7.01
355.337	7.01
355.702	6.98
356.066	6.98
356.431	6.95
356.795	6.92
357.16	6.9
357.524	6.89
357.889	6.89
358.253	6.88
358.618	6.86
358.982	6.85
359.346	6.83
359.71	6.82
360.075	6.79
360.439	6.78
360.803	6.76
361.167	6.75
361.531	6.74
361.895	6.72
362.259	6.71
362.623	6.7
362.987	6.69
363.351	6.68
363.714	6.69
364.078	6.66
364.442	6.63
364.806	6.62
365.169	6.61
365.533	6.59
365.896	6.55
366.26	6.53
366.623	6.49
366.987	6.47
367.35	6.45
367.714	6.42
368.077	6.41
368.44	6.39
368.803	6.35
369.167	6.32
369.53	6.28
369.893	6.26
370.256	6.23
370.619	6.2
370.982	6.16
371.345	6.09
371.708	6.08
372.071	6.06
372.434	6.02
372.797	5.99
373.159	5.95
373.522	5.91
373.885	5.89
374.247	5.86
374.61	5.83
374.973	5.78
375.335	5.74
375.698	5.72
376.06	5.69
376.423	5.67
376.785	5.65
377.147	5.62
377.51	5.61
377.872	5.59
378.234	5.56
378.596	5.53
378.958	5.52
379.321	5.5
379.683	5.48
380.045	5.45
380.407	5.41
380.769	5.4
381.13	5.4
381.492	5.34
381.854	5.32
382.216	5.32
382.578	5.3
382.939	5.29
383.301	5.25
383.663	5.23
384.024	5.2
384.386	5.18
384.747	5.18
385.109	5.16
385.47	5.14
385.832	5.11
386.193	5.11
386.554	5.1
386.916	5.1
387.277	5.08
387.638	5.07
387.999	5.07
388.36	5.06
388.721	5.03
389.082	5.04
389.443	5.02
389.804	4.99
390.165	4.98
390.526	4.96
390.887	4.94
391.248	4.94
391.609	4.93
391.969	4.91
392.33	4.9
392.691	4.87
393.051	4.86
393.412	4.85
393.772	4.83
394.133	4.82
394.493	4.79
394.854	4.77
395.214	4.76
395.574	4.73
395.935	4.72
396.295	4.71
396.655	4.68
397.015	4.67
397.376	4.65
397.736	4.65
398.096	4.63
398.456	4.62
398.816	4.6
399.176	4.59
399.535	4.59
399.895	4.57
400.255	4.56
400.615	4.55
400.975	4.54
401.334	4.52
401.694	4.51
402.054	4.5
402.413	4.5
402.773	4.49
403.132	4.49
403.492	4.49
403.851	4.48
404.211	4.48
404.57	4.47
404.929	4.48
405.288	4.46
405.648	4.46
406.007	4.45
406.366	4.46
406.725	4.46
407.084	4.44
407.443	4.45
407.802	4.45
408.161	4.45
408.52	4.44
408.879	4.44
409.238	4.44
409.596	4.44
409.955	4.43
410.314	4.43
410.673	4.42
411.031	4.42
411.39	4.41
411.748	4.41
412.107	4.4
412.465	4.39
412.824	4.41
413.182	4.39
413.54	4.39
413.899	4.38
414.257	4.37
414.615	4.37
414.974	4.37
415.332	4.37
415.69	4.36
416.048	4.35
416.406	4.35
416.764	4.36
417.122	4.36
417.48	4.36
417.838	4.36
418.195	4.36
418.553	4.37
418.911	4.37
419.269	4.37
419.626	4.37
419.984	4.38
420.342	4.37
420.699	4.38
421.057	4.39
421.414	4.39
421.772	4.39
422.129	4.4
422.486	4.4
422.844	4.4
423.201	4.39
423.558	4.4
423.915	4.4
424.273	4.39
424.63	4.39
424.987	4.38
425.344	4.38
425.701	4.37
426.058	4.36
426.415	4.36
426.772	4.35
427.128	4.34
427.485	4.32
427.842	4.32
428.199	4.32
428.555	4.31
428.912	4.3
429.269	4.29
429.625	4.28
429.982	4.27
430.338	4.27
430.695	4.27
431.051	4.26
431.407	4.26
431.764	4.26
432.12	4.25
432.476	4.26
432.832	4.26
433.189	4.27
433.545	4.27
433.901	4.27
434.257	4.28
434.613	4.28
434.969	4.29
435.325	4.29
435.681	4.3
436.036	4.29
436.392	4.3
436.748	4.31
437.104	4.31
437.459	4.31
437.815	4.32
438.171	4.32
438.526	4.33
438.882	4.33
439.237	4.34
439.593	4.35
439.948	4.35
440.304	4.35
440.659	4.36
441.014	4.36
441.369	4.36
441.725	4.36
442.08	4.37
442.435	4.36
442.79	4.37
443.145	4.37
443.5	4.37
443.855	4.37
444.21	4.37
444.565	4.37
444.92	4.37
445.275	4.37
445.629	4.37
445.984	4.37
446.339	4.37
446.693	4.37
447.048	4.36
447.403	4.35
447.757	4.35
448.112	4.35
448.466	4.34
448.82	4.34
449.175	4.34
449.529	4.33
449.883	4.33
450.238	4.32
450.592	4.32
450.946	4.32
451.3	4.32
451.654	4.32
452.008	4.32
452.362	4.31
452.716	4.3
453.07	4.3
453.424	4.29
453.778	4.29
454.132	4.28
454.486	4.28
454.839	4.28
455.193	4.27
455.547	4.28
455.9	4.29
456.254	4.29
456.607	4.29
456.961	4.3
457.314	4.31
457.668	4.31
458.021	4.31
458.375	4.32
458.728	4.32
459.081	4.32
459.434	4.33
459.787	4.33
460.141	4.33
460.494	4.33
460.847	4.33
461.2	4.33
461.553	4.33
461.906	4.34
462.259	4.33
462.611	4.34
462.964	4.33
463.317	4.33
463.67	4.33
464.022	4.33
464.375	4.33
464.728	4.32
465.08	4.33
465.433	4.33
465.785	4.33
466.138	4.33
466.49	4.32
466.843	4.32
467.195	4.32
467.547	4.33
467.899	4.34
468.252	4.35
468.604	4.35
468.956	4.35
469.308	4.36
469.66	4.36
470.012	4.37
470.364	4.38
470.716	4.38
471.068	4.39
471.42	4.39
471.772	4.39
472.123	4.41
472.475	4.41
472.827	4.41
473.178	4.41
473.53	4.41
473.882	4.42
474.233	4.43
474.585	4.44
474.936	4.44
475.288	4.44
475.639	4.44
475.99	4.45
476.342	4.45
476.693	4.46
477.044	4.46
477.395	4.46
477.746	4.46
478.097	4.46
478.448	4.47
478.8	4.55
479.15	4.67
479.501	4.81
479.852	4.97
480.203	5.14
480.554	5.32
480.905	5.51
481.255	5.69
481.606	5.87
481.957	6.05
482.307	6.22
482.658	6.37
483.009	6.51
483.359	6.62
483.709	6.72
484.06	6.82
484.41	6.91
484.761	6.99
485.111	7.08
485.461	7.17
485.811	7.24
486.162	7.28
486.512	7.27
486.862	7.24
487.212	7.18
487.562	7.1
487.912	6.99
488.262	6.88
488.612	6.75
488.961	6.63
489.311	6.49
489.661	6.34
490.011	6.19
490.36	6.04
490.71	5.89
491.06	5.73
491.409	5.57
491.759	5.45
492.108	5.34
492.458	5.24
492.807	5.16
493.157	5.07
493.506	4.99
493.855	4.91
494.204	4.84
494.554	4.76
494.903	4.71
495.252	4.66
495.601	4.61
495.95	4.57
496.299	4.53
496.648	4.49
496.997	4.46
497.346	4.45
497.695	4.46
498.043	4.49
498.392	4.55
498.741	4.61
499.09	4.66
499.438	4.69
499.787	4.71
500.135	4.73
500.484	4.75
500.832	4.78
501.181	4.81
501.529	4.83
501.878	4.86
502.226	4.87
502.574	4.89
502.923	4.92
503.271	4.95
503.619	4.99
503.967	5.02
504.315	5.06
504.663	5.09
505.011	5.12
505.359	5.16
505.707	5.2
506.055	5.25
506.403	5.3
506.751	5.36
507.098	5.41
507.446	5.46
507.794	5.51
508.141	5.55
508.489	5.6
508.837	5.66
509.184	5.72
509.531	5.78
509.879	5.83
510.226	5.89
510.574	5.95
510.921	6.01
511.268	6.07
511.616	6.14
511.963	6.21
512.31	6.28
512.657	6.36
513.004	6.44
513.351	6.52
513.698	6.61
514.045	6.69
514.392	6.79
514.739	6.88
515.086	6.98
515.432	7.08
515.779	7.19
516.126	7.28
516.473	7.39
516.819	7.49
517.166	7.58
517.512	7.67
517.859	7.76
518.205	7.85
518.552	7.94
518.898	8.03
519.245	8.12
519.591	8.21
519.937	8.3
520.283	8.4
520.629	8.5
520.976	8.61
521.322	8.72
521.668	8.84
522.014	8.96
522.36	9.08
522.706	9.23
523.052	9.41
523.398	9.65
523.743	9.95
524.089	10.3
524.435	10.68
524.781	11.06
525.126	11.45
525.472	11.84
525.817	12.22
526.163	12.58
526.509	12.91
526.854	13.21
527.199	13.45
527.545	13.66
527.89	13.85
528.235	14.02
528.581	14.2
528.926	14.37
529.271	14.54
529.616	14.71
529.961	14.88
530.306	15.03
530.651	15.12
530.996	15.17
531.341	15.18
531.686	15.14
532.031	15.06
532.376	14.94
532.721	14.78
533.065	14.6
533.41	14.47
533.755	14.35
534.099	14.28
534.444	14.29
534.788	14.33
535.133	14.41
535.477	14.49
535.822	14.6
536.166	14.72
536.51	14.87
536.855	15.04
537.199	15.24
537.543	15.48
537.887	15.74
538.231	16.02
538.576	16.3
538.92	16.62
539.264	16.94
539.608	17.27
539.951	17.59
540.295	17.92
540.639	18.18
540.983	18.4
541.327	18.59
541.671	18.73
542.014	18.93
542.358	19.14
542.701	19.35
543.045	19.55
543.389	19.75
543.732	19.94
544.075	20.13
544.419	20.31
544.762	20.47
545.105	20.61
545.449	20.74
545.792	20.86
546.135	20.98
546.478	21.12
546.821	21.29
547.165	21.54
547.508	21.8
547.851	22.1
548.194	22.45
548.536	22.83
548.879	23.22
549.222	23.51
549.565	23.77
549.908	24.03
550.25	24.29
550.593	24.56
550.936	24.86
551.278	25.14
551.621	25.42
551.963	25.7
552.306	26
552.648	26.27
552.991	26.54
553.333	26.8
553.675	27.05
554.017	27.32
554.36	27.56
554.702	27.81
555.044	28.06
555.386	28.3
555.728	28.55
556.07	28.81
556.412	29.04
556.754	29.3
557.096	29.57
557.438	29.83
557.78	30.08
558.121	30.34
558.463	30.58
558.805	30.83
559.147	31.07
559.488	31.32
559.83	31.56
560.171	31.8
560.513	32.04
560.854	32.27
561.196	32.53
561.537	32.78
561.878	33.02
562.22	33.26
562.561	33.5
562.902	33.75
563.243	33.97
563.584	34.19
563.925	34.43
564.266	34.63
564.607	34.83
564.948	35.03
565.289	35.22
565.63	35.42
565.971	35.63
566.312	35.82
566.653	36.01
566.993	36.2
567.334	36.39
567.675	36.59
568.015	36.79
568.356	36.97
568.696	37.14
569.037	37.32
569.377	37.5
569.718	37.67
570.058	37.84
570.398	37.99
570.739	38.18
571.079	38.34
571.419	38.5
571.759	38.66
572.099	38.82
572.439	38.97
572.779	39.12
573.119	39.25
573.459	39.38
573.799	39.51
574.139	39.64
574.479	39.76
574.819	39.87
575.158	39.97
575.498	40.08
575.838	40.19
576.177	40.3
576.517	40.4
576.856	40.52
577.196	40.63
577.535	40.75
577.875	40.82
578.214	40.91
578.553	41.03
578.893	41.14
579.232	41.23
579.571	41.33
579.91	41.44
580.25	41.54
580.589	41.65
580.928	41.75
581.267	41.87
581.606	41.98
581.945	42.08
582.283	42.21
582.622	42.35
582.961	42.48
583.3	42.61
583.639	42.71
583.977	42.82
584.316	42.95
584.654	43.06
584.993	43.18
585.332	43.28
585.67	43.37
586.008	43.47
586.347	43.58
586.685	43.69
587.024	43.79
587.362	43.89
587.7	43.99
588.038	44.08
588.376	44.17
588.715	44.28
589.053	44.37
589.391	44.45
589.729	44.52
590.067	44.6
590.404	44.69
590.742	44.76
591.08	44.85
591.418	44.91
591.756	44.99
592.093	45.07
592.431	45.18
592.769	45.26
593.106	45.32
593.444	45.41
593.781	45.49
594.119	45.57
594.456	45.63
594.793	45.71
595.131	45.79
595.468	45.87
595.805	45.93
596.143	45.96
596.48	46.04
596.817	46.1
597.154	46.15
597.491	46.19
597.828	46.27
598.165	46.32
598.502	46.4
598.839	46.48
599.176	46.55
599.512	46.61
599.849	46.68
600.186	46.79
600.523	46.83
600.859	46.91
601.196	46.96
601.532	47.04
601.869	47.11
602.205	47.17
602.542	47.22
602.878	47.28
603.215	47.37
603.551	47.42
603.887	47.48
604.223	47.54
604.56	47.58
604.896	47.63
605.232	47.7
605.568	47.73
605.904	47.76
606.24	47.82
606.576	47.86
606.912	47.9
607.248	47.92
607.583	47.99
607.919	48.02
608.255	48.06
608.591	48.08
608.926	48.11
609.262	48.15
609.597	48.17
609.933	48.2
610.268	48.23
610.604	48.25
610.939	48.29
611.275	48.31
611.61	48.37
611.945	48.42
612.281	48.46
612.616	48.51
612.951	48.56
613.286	48.57
613.621	48.6
613.956	48.64
614.291	48.72
614.626	48.72
614.961	48.76
615.296	48.81
615.631	48.87
615.966	48.91
616.3	48.95
616.635	49
616.97	49.04
617.304	49.07
617.639	49.11
617.973	49.17
618.308	49.2
618.642	49.21
618.977	49.22
619.311	49.23
619.646	49.26
619.98	49.29
620.314	49.33
620.648	49.37
620.983	49.4
621.317	49.44
621.651	49.48
621.985	49.52
622.319	49.54
622.653	49.58
622.987	49.64
623.321	49.66
623.655	49.69
623.988	49.73
624.322	49.76
624.656	49.79
624.99	49.79
625.323	49.8
625.657	49.87
625.99	49.92
626.324	49.93
626.657	49.98
626.991	49.99
627.324	50.04
627.658	50.07
627.991	50.09
628.324	50.1
628.657	50.14
628.991	50.15
629.324	50.2
629.657	50.23
629.99	50.22
630.323	50.26
630.656	50.28
630.989	50.28
631.322	50.32
631.655	50.34
631.987	50.36
632.32	50.41
632.653	50.41
632.986	50.42
633.318	50.45
633.651	50.45
633.984	50.48
634.316	50.5
634.649	50.52
634.981	50.53
635.313	50.56
635.646	50.58
635.978	50.63
636.31	50.67
636.643	50.64
636.975	50.68
637.307	50.7
637.639	50.71
637.971	50.74
638.303	50.77
638.635	50.78
638.967	50.82
639.299	50.84
639.631	50.86
639.963	50.89
640.295	50.9
640.626	50.93
640.958	50.97
641.29	50.97
641.621	50.99
641.953	51.05
642.285	51.09
642.616	51.15
642.948	51.16
643.279	51.14
643.61	51.18
643.942	51.2
644.273	51.26
644.604	51.31
644.936	51.33
645.267	51.37
645.598	51.41
645.929	51.44
646.26	51.47
646.591	51.52
646.922	51.53
647.253	51.54
647.584	51.58
647.915	51.62
648.245	51.68
648.576	51.73
648.907	51.76
649.238	51.74
649.568	51.73
649.899	51.76
650.229	51.79
650.56	51.85
650.89	51.89
651.221	51.91
651.551	51.97
651.882	52.02
652.212	52.02
652.542	52.04
652.872	52.07
653.203	52.06
653.533	52.09
653.863	52.15
654.193	52.18
654.523	52.19
654.853	52.2
655.183	52.17
655.513	52.21
655.843	52.2
656.172	52.22
656.502	52.25
656.832	52.27
657.162	52.29
657.491	52.3
657.821	52.27
658.15	52.3
658.48	52.3
658.809	52.3
659.139	52.33
659.468	52.39
659.798	52.39
660.127	52.43
660.456	52.41
660.785	52.41
661.115	52.46
661.444	52.49
661.773	52.5
662.102	52.52
662.431	52.52
662.76	52.56
663.089	52.6
663.418	52.58
663.747	52.6
664.076	52.62
664.404	52.64
664.733	52.69
665.062	52.68
665.39	52.68
665.719	52.7
666.048	52.73
666.376	52.7
666.705	52.72
667.033	52.75
667.362	52.82
667.69	52.83
668.018	52.84
668.347	52.85
668.675	52.85
669.003	52.88
669.331	52.9
669.659	52.91
669.987	52.93
