Data from UWBM42201_Reflection_00013.txt Node
Date: Sun May 02 12:50:50 EDT 2021
User: vgr7
Spectrometer: USB2G7710
Scans to average: 10
Trigger mode: 4
Integration Time (sec): 1.000000E-1
Electric dark correction enabled: true
Boxcar width: 20
XAxis mode: Wavelengths
Number of Pixels in Spectrum: 2048
>>>>>Begin Spectral Data<<<<<
177.721	99.46
178.105	99.32
178.488	99.3
178.871	98.92
179.254	98.63
179.636	96.93
180.019	95.74
180.402	93.62
180.785	90.73
181.168	89.45
181.55	86.21
181.933	111.76
182.316	111.24
182.698	113.2
183.081	115.08
183.463	116.77
183.846	118.45
184.228	119.53
184.611	120.1
184.993	122.8
185.376	125.33
185.758	-83.4
186.14	-30.8
186.522	-3.76
186.904	5.19
187.287	15.21
187.669	20.95
188.051	22.91
188.433	27.13
188.815	25.39
189.197	23.17
189.579	23.87
189.961	23.69
190.342	21.81
190.724	23.09
191.106	23.73
191.488	24.49
191.869	20.17
192.251	19.86
192.633	18.45
193.014	14.8
193.396	13.29
193.777	19.79
194.159	19.17
194.54	18.48
194.922	19.4
195.303	21
195.684	21.68
196.065	24.08
196.447	23.95
196.828	22.66
197.209	23.56
197.59	11.46
197.971	8.99
198.352	11.2
198.733	14.45
199.114	13.02
199.495	11.67
199.876	11.08
200.257	9.96
200.638	10.1
201.018	6.24
201.399	7.51
201.78	8.46
202.16	9.17
202.541	11.28
202.922	9.17
203.302	4.8
203.683	4.46
204.063	4.12
204.444	4.29
204.824	7.24
205.204	7.8
205.585	16.11
205.965	16.11
206.345	18.26
206.725	13.46
207.106	13.87
207.486	14.21
207.866	14.51
208.246	14.06
208.626	16.8
209.006	21.97
209.386	17.53
209.766	17.97
210.145	16.85
210.525	15.03
210.905	16.82
211.285	17.13
211.664	14.19
212.044	15.87
212.424	16.06
212.803	12.16
213.183	15.39
213.562	16.38
213.942	15.36
214.321	12.39
214.701	13.97
215.08	16.41
215.459	17
215.838	15.73
216.218	14.76
216.597	13.09
216.976	8.36
217.355	8.18
217.734	8.6
218.113	9.67
218.492	11.8
218.871	13.57
219.25	13.78
219.629	13.54
220.008	13.56
220.387	13.69
220.766	14.41
221.144	12.82
221.523	13.31
221.902	12.1
222.28	11.83
222.659	12.51
223.037	12.05
223.416	12.58
223.794	13.8
224.173	13.18
224.551	12.79
224.929	12.7
225.308	13.35
225.686	12.9
226.064	12.98
226.442	12.31
226.821	12.05
227.199	11.78
227.577	10.68
227.955	10.03
228.333	9.48
228.711	9.5
229.089	9.62
229.467	9
229.845	9.47
230.222	9.04
230.6	8.84
230.978	8.65
231.356	8.14
231.733	8.13
232.111	7.87
232.488	7.66
232.866	7.35
233.243	6.6
233.621	6.43
233.998	6.13
234.376	6.07
234.753	6.05
235.13	5.89
235.508	6.23
235.885	6.11
236.262	5.93
236.639	6.02
237.016	6.01
237.393	6.02
237.77	5.84
238.147	5.72
238.524	5.69
238.901	5.65
239.278	5.52
239.655	5.47
240.032	5.34
240.409	5.32
240.785	5.2
241.162	5.25
241.539	5.17
241.915	5.17
242.292	5.11
242.668	5.03
243.045	5.04
243.421	4.93
243.798	4.91
244.174	4.86
244.551	4.79
244.927	4.66
245.303	4.63
245.679	4.65
246.056	4.62
246.432	4.6
246.808	4.4
247.184	4.4
247.56	4.39
247.936	4.42
248.312	4.41
248.688	4.51
249.064	4.46
249.44	4.45
249.815	4.45
250.191	4.4
250.567	4.37
250.943	4.45
251.318	4.46
251.694	4.41
252.069	4.33
252.445	4.33
252.82	4.4
253.196	4.4
253.571	4.37
253.947	4.43
254.322	4.37
254.697	4.49
255.073	4.47
255.448	4.48
255.823	4.46
256.198	4.41
256.573	4.24
256.948	4.24
257.323	4.23
257.698	4.18
258.073	4.2
258.448	4.06
258.823	4.07
259.198	4.07
259.573	4.09
259.948	4.14
260.322	4.1
260.697	4.1
261.072	4.1
261.446	4.08
261.821	4.06
262.195	4.04
262.57	4.02
262.944	4.02
263.319	4
263.693	4.02
264.067	4.01
264.442	4.1
264.816	4.08
265.19	4.06
265.564	4.09
265.938	4.07
266.313	4.11
266.687	4.07
267.061	4.08
267.435	4.07
267.809	4.06
268.183	4.04
268.556	4.07
268.93	4.07
269.304	4.06
269.678	4.05
270.051	4.04
270.425	4.05
270.799	4.05
271.172	4.05
271.546	4.05
271.919	4.05
272.293	4.03
272.666	4.03
273.04	4.05
273.413	3.99
273.787	3.99
274.16	3.97
274.533	4
274.906	3.97
275.279	3.97
275.653	3.96
276.026	3.94
276.399	3.9
276.772	3.89
277.145	3.9
277.518	3.9
277.891	3.92
278.263	3.93
278.636	3.93
279.009	3.93
279.382	3.91
279.755	3.86
280.127	3.88
280.5	3.89
280.872	3.87
281.245	3.97
281.617	3.98
281.99	4.01
282.362	4.02
282.735	4.02
283.107	4.01
283.479	4.03
283.852	4.03
284.224	4.06
284.596	4.04
284.968	3.94
285.34	3.94
285.713	3.92
286.085	3.86
286.457	3.86
286.829	3.86
287.201	3.88
287.572	3.93
287.944	3.94
288.316	3.98
288.688	4.03
289.06	4.04
289.431	4.05
289.803	4.06
290.175	4.09
290.546	4.11
290.918	4.14
291.289	4.12
291.661	4.16
292.032	4.14
292.403	4.18
292.775	4.29
293.146	4.31
293.517	4.35
293.889	4.44
294.26	4.46
294.631	4.49
295.002	4.55
295.373	4.59
295.744	4.6
296.115	4.63
296.486	4.6
296.857	4.63
297.228	4.64
297.599	4.66
297.97	4.69
298.34	4.73
298.711	4.71
299.082	4.73
299.452	4.78
299.823	4.85
300.194	4.89
300.564	4.91
300.935	4.95
301.305	4.98
301.676	5
302.046	5.04
302.416	5.05
302.787	5.08
303.157	5.06
303.527	5.11
303.897	5.15
304.267	5.23
304.637	5.29
305.008	5.35
305.378	5.4
305.748	5.45
306.117	5.56
306.487	5.66
306.857	5.75
307.227	5.81
307.597	5.84
307.967	5.89
308.336	5.93
308.706	5.98
309.076	6.03
309.445	6.07
309.815	6
310.184	6.05
310.554	6.06
310.923	6.15
311.293	6.21
311.662	6.25
312.031	6.27
312.401	6.32
312.77	6.36
313.139	6.38
313.508	6.45
313.877	6.45
314.246	6.48
314.616	6.51
314.985	6.5
315.353	6.55
315.722	6.61
316.091	6.66
316.46	6.71
316.829	6.8
317.198	6.86
317.567	7.05
317.935	7.12
318.304	7.23
318.672	7.3
319.041	7.36
319.41	7.42
319.778	7.48
320.147	7.57
320.515	7.63
320.883	7.67
321.252	7.65
321.62	7.74
321.988	7.81
322.357	7.85
322.725	7.96
323.093	8.01
323.461	8.06
323.829	8.11
324.197	8.14
324.565	8.17
324.933	8.22
325.301	8.25
325.669	8.27
326.037	8.3
326.405	8.28
326.772	8.3
327.14	8.35
327.508	8.36
327.875	8.38
328.243	8.43
328.61	8.42
328.978	8.46
329.346	8.49
329.713	8.49
330.08	8.53
330.448	8.55
330.815	8.54
331.182	8.57
331.55	8.59
331.917	8.63
332.284	8.66
332.651	8.71
333.018	8.73
333.385	8.76
333.752	8.78
334.119	8.81
334.486	8.85
334.853	8.86
335.22	8.87
335.587	8.89
335.954	8.92
336.32	8.96
336.687	8.99
337.054	9.01
337.42	9.04
337.787	9.05
338.153	9.09
338.52	9.15
338.886	9.19
339.253	9.2
339.619	9.22
339.986	9.23
340.352	9.24
340.718	9.28
341.084	9.3
341.451	9.32
341.817	9.33
342.183	9.34
342.549	9.37
342.915	9.4
343.281	9.42
343.647	9.45
344.013	9.49
344.379	9.52
344.745	9.54
345.11	9.55
345.476	9.58
345.842	9.61
346.208	9.59
346.573	9.59
346.939	9.61
347.304	9.61
347.67	9.61
348.035	9.63
348.401	9.62
348.766	9.66
349.132	9.66
349.497	9.68
349.862	9.69
350.228	9.7
350.593	9.71
350.958	9.71
351.323	9.7
351.688	9.71
352.053	9.69
352.418	9.7
352.783	9.69
353.148	9.67
353.513	9.65
353.878	9.64
354.243	9.63
354.608	9.62
354.972	9.61
355.337	9.6
355.702	9.57
356.066	9.57
356.431	9.55
356.795	9.54
357.16	9.51
357.524	9.5
357.889	9.47
358.253	9.46
358.618	9.45
358.982	9.44
359.346	9.42
359.71	9.41
360.075	9.4
360.439	9.38
360.803	9.35
361.167	9.33
361.531	9.34
361.895	9.32
362.259	9.3
362.623	9.29
362.987	9.26
363.351	9.25
363.714	9.23
364.078	9.2
364.442	9.18
364.806	9.16
365.169	9.12
365.533	9.09
365.896	9.07
366.26	9.03
366.623	8.99
366.987	8.96
367.35	8.94
367.714	8.92
368.077	8.89
368.44	8.86
368.803	8.83
369.167	8.8
369.53	8.77
369.893	8.74
370.256	8.7
370.619	8.68
370.982	8.62
371.345	8.58
371.708	8.54
372.071	8.5
372.434	8.46
372.797	8.45
373.159	8.42
373.522	8.38
373.885	8.33
374.247	8.27
374.61	8.23
374.973	8.17
375.335	8.13
375.698	8.09
376.06	8.04
376.423	7.98
376.785	7.94
377.147	7.88
377.51	7.84
377.872	7.79
378.234	7.73
378.596	7.7
378.958	7.67
379.321	7.63
379.683	7.58
380.045	7.54
380.407	7.49
380.769	7.44
381.13	7.41
381.492	7.37
381.854	7.33
382.216	7.29
382.578	7.24
382.939	7.21
383.301	7.17
383.663	7.13
384.024	7.09
384.386	7.05
384.747	7.01
385.109	6.96
385.47	6.92
385.832	6.89
386.193	6.85
386.554	6.8
386.916	6.76
387.277	6.72
387.638	6.69
387.999	6.66
388.36	6.62
388.721	6.59
389.082	6.56
389.443	6.52
389.804	6.5
390.165	6.47
390.526	6.43
390.887	6.4
391.248	6.37
391.609	6.35
391.969	6.32
392.33	6.3
392.691	6.27
393.051	6.24
393.412	6.2
393.772	6.18
394.133	6.15
394.493	6.11
394.854	6.09
395.214	6.05
395.574	6.02
395.935	5.98
396.295	5.94
396.655	5.91
397.015	5.88
397.376	5.84
397.736	5.81
398.096	5.78
398.456	5.74
398.816	5.73
399.176	5.69
399.535	5.66
399.895	5.64
400.255	5.61
400.615	5.58
400.975	5.56
401.334	5.52
401.694	5.5
402.054	5.47
402.413	5.43
402.773	5.4
403.132	5.39
403.492	5.36
403.851	5.34
404.211	5.32
404.57	5.3
404.929	5.29
405.288	5.27
405.648	5.25
406.007	5.23
406.366	5.22
406.725	5.21
407.084	5.19
407.443	5.17
407.802	5.14
408.161	5.12
408.52	5.1
408.879	5.08
409.238	5.06
409.596	5.05
409.955	5.05
410.314	5.03
410.673	5.01
411.031	5
411.39	5
411.748	4.99
412.107	4.98
412.465	4.97
412.824	4.98
413.182	4.99
413.54	4.99
413.899	5
414.257	5.02
414.615	5.04
414.974	5.06
415.332	5.09
415.69	5.13
416.048	5.14
416.406	5.18
416.764	5.2
417.122	5.22
417.48	5.24
417.838	5.27
418.195	5.28
418.553	5.29
418.911	5.29
419.269	5.29
419.626	5.27
419.984	5.25
420.342	5.22
420.699	5.2
421.057	5.17
421.414	5.14
421.772	5.12
422.129	5.1
422.486	5.09
422.844	5.08
423.201	5.07
423.558	5.06
423.915	5.05
424.273	5.04
424.63	5.03
424.987	5.01
425.344	5.01
425.701	4.99
426.058	4.98
426.415	4.97
426.772	4.96
427.128	4.94
427.485	4.92
427.842	4.91
428.199	4.88
428.555	4.86
428.912	4.83
429.269	4.79
429.625	4.76
429.982	4.72
430.338	4.68
430.695	4.66
431.051	4.61
431.407	4.58
431.764	4.55
432.12	4.51
432.476	4.49
432.832	4.48
433.189	4.48
433.545	4.47
433.901	4.48
434.257	4.5
434.613	4.52
434.969	4.54
435.325	4.57
435.681	4.61
436.036	4.61
436.392	4.64
436.748	4.64
437.104	4.64
437.459	4.66
437.815	4.68
438.171	4.69
438.526	4.71
438.882	4.74
439.237	4.78
439.593	4.82
439.948	4.84
440.304	4.88
440.659	4.9
441.014	4.92
441.369	4.95
441.725	4.96
442.08	4.98
442.435	4.98
442.79	4.99
443.145	4.98
443.5	4.98
443.855	4.98
444.21	4.97
444.565	4.97
444.92	4.96
445.275	4.94
445.629	4.93
445.984	4.92
446.339	4.91
446.693	4.91
447.048	4.89
447.403	4.87
447.757	4.84
448.112	4.82
448.466	4.8
448.82	4.77
449.175	4.75
449.529	4.73
449.883	4.71
450.238	4.68
450.592	4.68
450.946	4.67
451.3	4.66
451.654	4.66
452.008	4.66
452.362	4.66
452.716	4.65
453.07	4.65
453.424	4.64
453.778	4.63
454.132	4.6
454.486	4.59
454.839	4.56
455.193	4.53
455.547	4.52
455.9	4.48
456.254	4.46
456.607	4.42
456.961	4.39
457.314	4.37
457.668	4.36
458.021	4.35
458.375	4.35
458.728	4.35
459.081	4.35
459.434	4.36
459.787	4.37
460.141	4.38
460.494	4.38
460.847	4.38
461.2	4.38
461.553	4.39
461.906	4.4
462.259	4.4
462.611	4.41
462.964	4.42
463.317	4.42
463.67	4.43
464.022	4.43
464.375	4.43
464.728	4.43
465.08	4.44
465.433	4.44
465.785	4.45
466.138	4.43
466.49	4.42
466.843	4.41
467.195	4.4
467.547	4.38
467.899	4.37
468.252	4.35
468.604	4.33
468.956	4.32
469.308	4.31
469.66	4.32
470.012	4.32
470.364	4.33
470.716	4.34
471.068	4.37
471.42	4.4
471.772	4.43
472.123	4.45
472.475	4.47
472.827	4.49
473.178	4.5
473.53	4.52
473.882	4.54
474.233	4.57
474.585	4.62
474.936	4.69
475.288	4.79
475.639	4.92
475.99	5.07
476.342	5.24
476.693	5.42
477.044	5.6
477.395	5.8
477.746	5.99
478.097	6.18
478.448	6.37
478.8	6.56
479.15	6.74
479.501	6.89
479.852	7.04
480.203	7.17
480.554	7.3
480.905	7.43
481.255	7.55
481.606	7.66
481.957	7.75
482.307	7.85
482.658	7.95
483.009	8.04
483.359	8.13
483.709	8.21
484.06	8.29
484.41	8.37
484.761	8.44
485.111	8.51
485.461	8.57
485.811	8.64
486.162	8.69
486.512	8.74
486.862	8.78
487.212	8.8
487.562	8.82
487.912	8.83
488.262	8.83
488.612	8.83
488.961	8.8
489.311	8.76
489.661	8.69
490.011	8.59
490.36	8.47
490.71	8.33
491.06	8.18
491.409	8.03
491.759	7.87
492.108	7.7
492.458	7.54
492.807	7.36
493.157	7.18
493.506	7.02
493.855	6.86
494.204	6.72
494.554	6.58
494.903	6.46
495.252	6.34
495.601	6.23
495.95	6.12
496.299	6.02
496.648	5.93
496.997	5.84
497.346	5.77
497.695	5.69
498.043	5.62
498.392	5.56
498.741	5.49
499.09	5.44
499.438	5.38
499.787	5.34
500.135	5.29
500.484	5.26
500.832	5.25
501.181	5.24
501.529	5.25
501.878	5.27
502.226	5.3
502.574	5.34
502.923	5.38
503.271	5.43
503.619	5.48
503.967	5.54
504.315	5.59
504.663	5.65
505.011	5.7
505.359	5.76
505.707	5.83
506.055	5.89
506.403	5.97
506.751	6.05
507.098	6.12
507.446	6.21
507.794	6.31
508.141	6.41
508.489	6.52
508.837	6.63
509.184	6.75
509.531	6.87
509.879	7
510.226	7.14
510.574	7.28
510.921	7.44
511.268	7.59
511.616	7.75
511.963	7.93
512.31	8.11
512.657	8.29
513.004	8.47
513.351	8.65
513.698	8.82
514.045	8.98
514.392	9.15
514.739	9.31
515.086	9.46
515.432	9.62
515.779	9.8
516.126	9.97
516.473	10.17
516.819	10.38
517.166	10.6
517.512	10.85
517.859	11.11
518.205	11.39
518.552	11.7
518.898	12.03
519.245	12.4
519.591	12.84
519.937	13.36
520.283	13.96
520.629	14.61
520.976	15.28
521.322	15.98
521.668	16.7
522.014	17.41
522.36	18.13
522.706	18.83
523.052	19.53
523.398	20.19
523.743	20.81
524.089	21.38
524.435	21.93
524.781	22.46
525.126	22.99
525.472	23.52
525.817	24.04
526.163	24.55
526.509	25.05
526.854	25.55
527.199	26.04
527.545	26.53
527.89	27.03
528.235	27.52
528.581	27.99
528.926	28.43
529.271	28.86
529.616	29.24
529.961	29.59
530.306	29.92
530.651	30.25
530.996	30.55
531.341	30.83
531.686	31.08
532.031	31.33
532.376	31.6
532.721	31.89
533.065	32.21
533.41	32.54
533.755	32.83
534.099	33.06
534.444	33.28
534.788	33.46
535.133	33.63
535.477	33.77
535.822	33.87
536.166	33.93
536.51	33.95
536.855	33.91
537.199	33.83
537.543	33.75
537.887	33.7
538.231	33.68
538.576	33.66
538.92	33.63
539.264	33.59
539.608	33.53
539.951	33.45
540.295	33.35
540.639	33.24
540.983	33.12
541.327	32.99
541.671	32.87
542.014	32.75
542.358	32.66
542.701	32.65
543.045	32.69
543.389	32.74
543.732	32.82
544.075	32.92
544.419	33.03
544.762	33.14
545.105	33.27
545.449	33.42
545.792	33.57
546.135	33.72
546.478	33.83
546.821	33.89
547.165	33.89
547.508	33.83
547.851	33.73
548.194	33.6
548.536	33.41
548.879	33.2
549.222	32.96
549.565	32.72
549.908	32.48
550.25	32.26
550.593	32.1
550.936	32
551.278	31.97
551.621	31.97
551.963	32
552.306	32.04
552.648	32.12
552.991	32.21
553.333	32.33
553.675	32.48
554.017	32.65
554.36	32.85
554.702	33.09
555.044	33.36
555.386	33.68
555.728	33.97
556.07	34.23
556.412	34.48
556.754	34.66
557.096	34.82
557.438	35
557.78	35.17
558.121	35.33
558.463	35.51
558.805	35.67
559.147	35.85
559.488	36.01
559.83	36.18
560.171	36.35
560.513	36.5
560.854	36.67
561.196	36.82
561.537	36.98
561.878	37.13
562.22	37.27
562.561	37.42
562.902	37.57
563.243	37.72
563.584	37.86
563.925	38.01
564.266	38.15
564.607	38.3
564.948	38.44
565.289	38.58
565.63	38.72
565.971	38.85
566.312	38.98
566.653	39.11
566.993	39.22
567.334	39.34
567.675	39.46
568.015	39.59
568.356	39.7
568.696	39.82
569.037	39.91
569.377	40.01
569.718	40.11
570.058	40.2
570.398	40.29
570.739	40.38
571.079	40.47
571.419	40.54
571.759	40.62
572.099	40.7
572.439	40.78
572.779	40.86
573.119	40.93
573.459	41
573.799	41.06
574.139	41.14
574.479	41.22
574.819	41.27
575.158	41.34
575.498	41.4
575.838	41.46
576.177	41.52
576.517	41.58
576.856	41.63
577.196	41.69
577.535	41.74
577.875	41.79
578.214	41.85
578.553	41.9
578.893	41.95
579.232	41.99
579.571	42.03
579.91	42.08
580.25	42.13
580.589	42.17
580.928	42.23
581.267	42.28
581.606	42.34
581.945	42.4
582.283	42.45
582.622	42.51
582.961	42.58
583.3	42.64
583.639	42.71
583.977	42.78
584.316	42.84
584.654	42.91
584.993	42.96
585.332	43.02
585.67	43.09
586.008	43.14
586.347	43.19
586.685	43.25
587.024	43.32
587.362	43.39
587.7	43.46
588.038	43.52
588.376	43.58
588.715	43.65
589.053	43.73
589.391	43.8
589.729	43.86
590.067	43.93
590.404	44
590.742	44.06
591.08	44.13
591.418	44.2
591.756	44.26
592.093	44.31
592.431	44.37
592.769	44.42
593.106	44.47
593.444	44.53
593.781	44.58
594.119	44.63
594.456	44.67
594.793	44.72
595.131	44.76
595.468	44.8
595.805	44.85
596.143	44.9
596.48	44.95
596.817	45.01
597.154	45.05
597.491	45.11
597.828	45.16
598.165	45.22
598.502	45.27
598.839	45.33
599.176	45.37
599.512	45.41
599.849	45.45
600.186	45.49
600.523	45.52
600.859	45.55
601.196	45.58
601.532	45.62
601.869	45.65
602.205	45.69
602.542	45.73
602.878	45.75
603.215	45.79
603.551	45.81
603.887	45.85
604.223	45.87
604.56	45.9
604.896	45.92
605.232	45.94
605.568	45.98
605.904	46
606.24	46.02
606.576	46.05
606.912	46.07
607.248	46.08
607.583	46.11
607.919	46.13
608.255	46.16
608.591	46.18
608.926	46.21
609.262	46.23
609.597	46.24
609.933	46.26
610.268	46.27
610.604	46.29
610.939	46.3
611.275	46.31
611.61	46.32
611.945	46.33
612.281	46.33
612.616	46.34
612.951	46.35
613.286	46.37
613.621	46.37
613.956	46.39
614.291	46.42
614.626	46.44
614.961	46.45
615.296	46.47
615.631	46.48
615.966	46.5
616.3	46.49
616.635	46.51
616.97	46.53
617.304	46.54
617.639	46.55
617.973	46.57
618.308	46.6
618.642	46.63
618.977	46.64
619.311	46.65
619.646	46.69
619.98	46.74
620.314	46.78
620.648	46.82
620.983	46.85
621.317	46.87
621.651	46.89
621.985	46.92
622.319	46.94
622.653	46.97
622.987	46.99
623.321	47.03
623.655	47.05
623.988	47.08
624.322	47.08
624.656	47.11
624.99	47.14
625.323	47.16
625.657	47.18
625.99	47.21
626.324	47.23
626.657	47.25
626.991	47.27
627.324	47.3
627.658	47.31
627.991	47.33
628.324	47.35
628.657	47.37
628.991	47.39
629.324	47.42
629.657	47.44
629.99	47.46
630.323	47.48
630.656	47.49
630.989	47.52
631.322	47.55
631.655	47.57
631.987	47.58
632.32	47.59
632.653	47.61
632.986	47.63
633.318	47.64
633.651	47.64
633.984	47.63
634.316	47.64
634.649	47.66
634.981	47.69
635.313	47.7
635.646	47.71
635.978	47.73
636.31	47.74
636.643	47.75
636.975	47.74
637.307	47.75
637.639	47.77
637.971	47.81
638.303	47.82
638.635	47.83
638.967	47.84
639.299	47.86
639.631	47.88
639.963	47.89
640.295	47.9
640.626	47.93
640.958	47.95
641.29	47.99
641.621	48
641.953	48.03
642.285	48.05
642.616	48.09
642.948	48.08
643.279	48.11
643.61	48.13
643.942	48.14
644.273	48.17
644.604	48.18
644.936	48.2
645.267	48.23
645.598	48.25
645.929	48.27
646.26	48.27
646.591	48.27
646.922	48.29
647.253	48.31
647.584	48.34
647.915	48.37
648.245	48.4
648.576	48.42
648.907	48.42
649.238	48.43
649.568	48.44
649.899	48.44
650.229	48.48
650.56	48.51
650.89	48.55
651.221	48.57
651.551	48.58
651.882	48.61
652.212	48.64
652.542	48.65
652.872	48.69
653.203	48.73
653.533	48.74
653.863	48.77
654.193	48.78
654.523	48.78
654.853	48.77
655.183	48.8
655.513	48.82
655.843	48.84
656.172	48.85
656.502	48.88
656.832	48.89
657.162	48.9
657.491	48.92
657.821	48.92
658.15	48.93
658.48	48.94
658.809	48.97
659.139	48.98
659.468	49
659.798	49.04
660.127	49.06
660.456	49.09
660.785	49.11
661.115	49.14
661.444	49.14
661.773	49.15
662.102	49.16
662.431	49.19
662.76	49.2
663.089	49.21
663.418	49.24
663.747	49.24
664.076	49.26
664.404	49.26
664.733	49.27
665.062	49.29
665.39	49.32
665.719	49.33
666.048	49.33
666.376	49.33
666.705	49.35
667.033	49.35
667.362	49.34
667.69	49.35
668.018	49.37
668.347	49.4
668.675	49.39
669.003	49.39
669.331	49.39
669.659	49.4
669.987	49.42
670.315	49.42
