Data from UWBM104549_Reflection_00008.txt Node
Date: Sun May 02 12:25:10 EDT 2021
User: vgr7
Spectrometer: USB2G7710
Scans to average: 10
Trigger mode: 4
Integration Time (sec): 1.000000E-1
Electric dark correction enabled: true
Boxcar width: 10
XAxis mode: Wavelengths
Number of Pixels in Spectrum: 2048
>>>>>Begin Spectral Data<<<<<
177.721	892
178.105	348.57
178.488	251.33
178.871	504.08
179.254	-50
179.636	-56.74
180.019	730
180.402	88.89
180.785	44.62
181.168	-13.13
181.55	12.2
181.933	-7.61
182.316	-61.05
182.698	-36.05
183.081	-74.42
183.463	-185.48
183.846	-81.21
184.228	-127.14
184.611	-93.19
184.993	-35.73
185.376	-23.64
185.758	-32.51
186.14	-46.64
186.522	-28.33
186.904	-21.49
187.287	-10.94
187.669	-17.64
188.051	-10.94
188.433	-1.85
188.815	-1.83
189.197	8.03
189.579	10.03
189.961	12.9
190.342	8.44
190.724	11.45
191.106	12.62
191.488	15.91
191.869	11.78
192.251	19.25
192.633	14.43
193.014	11.75
193.396	14.76
193.777	22.42
194.159	22.57
194.54	19.75
194.922	18.85
195.303	21.16
195.684	26.97
196.065	23.83
196.447	22.81
196.828	22.37
197.209	21.79
197.59	17.43
197.971	16.29
198.352	17.57
198.733	18.23
199.114	17.53
199.495	17.9
199.876	22.78
200.257	17.47
200.638	19.68
201.018	18.62
201.399	13.85
201.78	6.64
202.16	6.61
202.541	6.61
202.922	4.35
203.302	1.83
203.683	-0.68
204.063	-1.96
204.444	-1.49
204.824	0.88
205.204	1.63
205.585	3.41
205.965	1.23
206.345	6.55
206.725	5.41
207.106	4.83
207.486	5.17
207.866	6.51
208.246	8.44
208.626	11.94
209.006	13.27
209.386	13.68
209.766	14.41
210.145	17.18
210.525	15.39
210.905	16.01
211.285	18.44
211.664	21.48
212.044	26.58
212.424	29.52
212.803	29.74
213.183	33.69
213.562	32.24
213.942	32.74
214.321	27.88
214.701	25.11
215.08	27.45
215.459	27.22
215.838	22.74
216.218	19.16
216.597	16.82
216.976	12.46
217.355	11.53
217.734	12.52
218.113	10.9
218.492	13.19
218.871	17.85
219.25	16.85
219.629	15.55
220.008	11.75
220.387	6.48
220.766	2.98
221.144	-3.31
221.523	-1.55
221.902	0.76
222.28	0.74
222.659	2.11
223.037	2.06
223.416	4.06
223.794	6.64
224.173	8.01
224.551	6.04
224.929	5.58
225.308	7.19
225.686	8.57
226.064	10.06
226.442	10.22
226.821	8.68
227.199	7.01
227.577	5.38
227.955	5.1
228.333	7.1
228.711	7.29
229.089	8.27
229.467	7.93
229.845	7.63
230.222	8.06
230.6	7.95
230.978	8.33
231.356	8.63
231.733	7.71
232.111	7.92
232.488	7.58
232.866	7.51
233.243	7.57
233.621	7.49
233.998	6.67
234.376	6.58
234.753	6.45
235.13	6.78
235.508	7.69
235.885	8.01
236.262	7.85
236.639	8.06
237.016	7.43
237.393	7.45
237.77	6.92
238.147	6.75
238.524	6.8
238.901	6.91
239.278	6.47
239.655	6.62
240.032	6.33
240.409	6.51
240.785	6.52
241.162	6.34
241.539	6.18
241.915	6.23
242.292	6.09
242.668	6.12
243.045	6.05
243.421	5.92
243.798	5.82
244.174	5.71
244.551	5.61
244.927	5.5
245.303	5.35
245.679	5.44
246.056	5.39
246.432	5.4
246.808	5.28
247.184	5.28
247.56	5.23
247.936	5.27
248.312	5.23
248.688	5.23
249.064	5.18
249.44	5.18
249.815	5.18
250.191	5.2
250.567	5.16
250.943	5.19
251.318	5.19
251.694	5.14
252.069	5.08
252.445	5.16
252.82	5.15
253.196	5.24
253.571	5.19
253.947	5.29
254.322	5.19
254.697	5.19
255.073	5.16
255.448	5.07
255.823	5
256.198	4.84
256.573	4.81
256.948	4.77
257.323	4.82
257.698	4.74
258.073	4.74
258.448	4.7
258.823	4.71
259.198	4.7
259.573	4.72
259.948	4.73
260.322	4.65
260.697	4.67
261.072	4.67
261.446	4.65
261.821	4.6
262.195	4.6
262.57	4.59
262.944	4.56
263.319	4.57
263.693	4.62
264.067	4.67
264.442	4.66
264.816	4.68
265.19	4.64
265.564	4.7
265.938	4.6
266.313	4.61
266.687	4.52
267.061	4.5
267.435	4.5
267.809	4.47
268.183	4.49
268.556	4.5
268.93	4.47
269.304	4.44
269.678	4.41
270.051	4.39
270.425	4.39
270.799	4.41
271.172	4.39
271.546	4.37
271.919	4.42
272.293	4.36
272.666	4.37
273.04	4.35
273.413	4.26
273.787	4.3
274.16	4.33
274.533	4.34
274.906	4.35
275.279	4.36
275.653	4.34
276.026	4.29
276.399	4.24
276.772	4.24
277.145	4.27
277.518	4.33
277.891	4.38
278.263	4.37
278.636	4.36
279.009	4.41
279.382	4.39
279.755	4.33
280.127	4.43
280.5	4.39
280.872	4.35
281.245	4.43
281.617	4.45
281.99	4.4
282.362	4.39
282.735	4.37
283.107	4.33
283.479	4.36
283.852	4.39
284.224	4.46
284.596	4.47
284.968	4.46
285.34	4.44
285.713	4.47
286.085	4.45
286.457	4.45
286.829	4.42
287.201	4.43
287.572	4.46
287.944	4.45
288.316	4.51
288.688	4.59
289.06	4.6
289.431	4.58
289.803	4.61
290.175	4.65
290.546	4.68
290.918	4.71
291.289	4.72
291.661	4.75
292.032	4.73
292.403	4.73
292.775	4.77
293.146	4.8
293.517	4.85
293.889	4.9
294.26	4.94
294.631	5
295.002	5.01
295.373	5.09
295.744	5.1
296.115	5.08
296.486	5.08
296.857	5.1
297.228	5.14
297.599	5.18
297.97	5.2
298.34	5.22
298.711	5.26
299.082	5.29
299.452	5.31
299.823	5.39
300.194	5.46
300.564	5.49
300.935	5.53
301.305	5.51
301.676	5.51
302.046	5.52
302.416	5.52
302.787	5.56
303.157	5.59
303.527	5.67
303.897	5.75
304.267	5.81
304.637	5.88
305.008	5.96
305.378	6.01
305.748	6.06
306.117	6.14
306.487	6.19
306.857	6.25
307.227	6.29
307.597	6.29
307.967	6.32
308.336	6.36
308.706	6.39
309.076	6.42
309.445	6.49
309.815	6.53
310.184	6.59
310.554	6.65
310.923	6.65
311.293	6.69
311.662	6.74
312.031	6.74
312.401	6.76
312.77	6.77
313.139	6.84
313.508	6.87
313.877	6.9
314.246	6.91
314.616	7
314.985	7.03
315.353	7.09
315.722	7.14
316.091	7.23
316.46	7.33
316.829	7.42
317.198	7.5
317.567	7.57
317.935	7.62
318.304	7.69
318.672	7.75
319.041	7.8
319.41	7.86
319.778	7.94
320.147	7.99
320.515	8.02
320.883	8.02
321.252	8.09
321.62	8.11
321.988	8.24
322.357	8.23
322.725	8.27
323.093	8.31
323.461	8.4
323.829	8.41
324.197	8.41
324.565	8.46
324.933	8.46
325.301	8.53
325.669	8.59
326.037	8.59
326.405	8.59
326.772	8.61
327.14	8.64
327.508	8.64
327.875	8.72
328.243	8.79
328.61	8.86
328.978	8.92
329.346	8.96
329.713	8.92
330.08	9
330.448	9.05
330.815	9.1
331.182	9.1
331.55	9.15
331.917	9.21
332.284	9.21
332.651	9.24
333.018	9.28
333.385	9.3
333.752	9.38
334.119	9.46
334.486	9.53
334.853	9.56
335.22	9.62
335.587	9.62
335.954	9.68
336.32	9.68
336.687	9.69
337.054	9.72
337.42	9.81
337.787	9.85
338.153	9.91
338.52	9.94
338.886	9.98
339.253	9.99
339.619	10.02
339.986	10.1
340.352	10.16
340.718	10.2
341.084	10.26
341.451	10.29
341.817	10.28
342.183	10.3
342.549	10.35
342.915	10.38
343.281	10.42
343.647	10.48
344.013	10.53
344.379	10.55
344.745	10.59
345.11	10.61
345.476	10.63
345.842	10.7
346.208	10.71
346.573	10.76
346.939	10.8
347.304	10.81
347.67	10.82
348.035	10.87
348.401	10.87
348.766	10.87
349.132	10.9
349.497	10.97
349.862	10.99
350.228	11.02
350.593	11.05
350.958	11.09
351.323	11.08
351.688	11.11
352.053	11.14
352.418	11.15
352.783	11.16
353.148	11.2
353.513	11.15
353.878	11.19
354.243	11.2
354.608	11.2
354.972	11.21
355.337	11.2
355.702	11.15
356.066	11.16
356.431	11.16
356.795	11.14
357.16	11.15
357.524	11.13
357.889	11.12
358.253	11.12
358.618	11.11
358.982	11.1
359.346	11.08
359.71	11.06
360.075	11.06
360.439	11.03
360.803	11.01
361.167	11
361.531	10.99
361.895	10.96
362.259	10.95
362.623	10.95
362.987	10.95
363.351	10.97
363.714	10.97
364.078	10.95
364.442	10.93
364.806	10.88
365.169	10.89
365.533	10.86
365.896	10.82
366.26	10.77
366.623	10.73
366.987	10.69
367.35	10.69
367.714	10.64
368.077	10.63
368.44	10.59
368.803	10.54
369.167	10.5
369.53	10.46
369.893	10.43
370.256	10.39
370.619	10.35
370.982	10.31
371.345	10.25
371.708	10.22
372.071	10.19
372.434	10.16
372.797	10.08
373.159	10.05
373.522	10
373.885	9.97
374.247	9.93
374.61	9.87
374.973	9.79
375.335	9.72
375.698	9.67
376.06	9.6
376.423	9.56
376.785	9.5
377.147	9.45
377.51	9.41
377.872	9.34
378.234	9.26
378.596	9.2
378.958	9.17
379.321	9.1
379.683	9.02
380.045	8.96
380.407	8.91
380.769	8.84
381.13	8.79
381.492	8.72
381.854	8.66
382.216	8.62
382.578	8.57
382.939	8.54
383.301	8.48
383.663	8.44
384.024	8.4
384.386	8.36
384.747	8.3
385.109	8.25
385.47	8.22
385.832	8.17
386.193	8.14
386.554	8.07
386.916	8.03
387.277	8
387.638	7.96
387.999	7.91
388.36	7.86
388.721	7.83
389.082	7.8
389.443	7.77
389.804	7.72
390.165	7.68
390.526	7.64
390.887	7.6
391.248	7.56
391.609	7.52
391.969	7.48
392.33	7.45
392.691	7.41
393.051	7.36
393.412	7.32
393.772	7.25
394.133	7.23
394.493	7.19
394.854	7.15
395.214	7.11
395.574	7.07
395.935	7.04
396.295	6.97
396.655	6.92
397.015	6.85
397.376	6.81
397.736	6.78
398.096	6.71
398.456	6.66
398.816	6.63
399.176	6.56
399.535	6.53
399.895	6.47
400.255	6.42
400.615	6.38
400.975	6.35
401.334	6.32
401.694	6.27
402.054	6.23
402.413	6.19
402.773	6.15
403.132	6.11
403.492	6.07
403.851	6.04
404.211	6.02
404.57	6.01
404.929	5.98
405.288	5.95
405.648	5.93
406.007	5.91
406.366	5.9
406.725	5.89
407.084	5.85
407.443	5.85
407.802	5.82
408.161	5.81
408.52	5.8
408.879	5.79
409.238	5.77
409.596	5.76
409.955	5.74
410.314	5.73
410.673	5.7
411.031	5.7
411.39	5.69
411.748	5.67
412.107	5.66
412.465	5.65
412.824	5.64
413.182	5.64
413.54	5.62
413.899	5.6
414.257	5.59
414.615	5.58
414.974	5.56
415.332	5.56
415.69	5.54
416.048	5.52
416.406	5.5
416.764	5.5
417.122	5.48
417.48	5.47
417.838	5.46
418.195	5.46
418.553	5.44
418.911	5.44
419.269	5.42
419.626	5.41
419.984	5.4
420.342	5.38
420.699	5.37
421.057	5.35
421.414	5.33
421.772	5.32
422.129	5.31
422.486	5.3
422.844	5.28
423.201	5.26
423.558	5.25
423.915	5.23
424.273	5.21
424.63	5.2
424.987	5.18
425.344	5.16
425.701	5.13
426.058	5.12
426.415	5.1
426.772	5.08
427.128	5.05
427.485	5.03
427.842	5.01
428.199	4.99
428.555	4.98
428.912	4.96
429.269	4.95
429.625	4.94
429.982	4.93
430.338	4.92
430.695	4.91
431.051	4.9
431.407	4.9
431.764	4.89
432.12	4.89
432.476	4.89
432.832	4.89
433.189	4.9
433.545	4.89
433.901	4.9
434.257	4.9
434.613	4.9
434.969	4.9
435.325	4.91
435.681	4.92
436.036	4.92
436.392	4.93
436.748	4.93
437.104	4.94
437.459	4.94
437.815	4.95
438.171	4.96
438.526	4.96
438.882	4.98
439.237	4.98
439.593	4.99
439.948	4.99
440.304	5
440.659	5
441.014	5
441.369	5
441.725	5.01
442.08	5.01
442.435	5.01
442.79	5.01
443.145	5.02
443.5	5.02
443.855	5.01
444.21	5.01
444.565	5
444.92	4.99
445.275	4.99
445.629	4.98
445.984	4.97
446.339	4.96
446.693	4.95
447.048	4.93
447.403	4.93
447.757	4.92
448.112	4.9
448.466	4.89
448.82	4.89
449.175	4.88
449.529	4.86
449.883	4.85
450.238	4.82
450.592	4.81
450.946	4.79
451.3	4.78
451.654	4.77
452.008	4.76
452.362	4.74
452.716	4.73
453.07	4.72
453.424	4.7
453.778	4.7
454.132	4.69
454.486	4.69
454.839	4.68
455.193	4.68
455.547	4.68
455.9	4.67
456.254	4.66
456.607	4.67
456.961	4.68
457.314	4.69
457.668	4.7
458.021	4.71
458.375	4.71
458.728	4.72
459.081	4.72
459.434	4.72
459.787	4.72
460.141	4.73
460.494	4.73
460.847	4.74
461.2	4.75
461.553	4.76
461.906	4.77
462.259	4.78
462.611	4.79
462.964	4.79
463.317	4.8
463.67	4.81
464.022	4.81
464.375	4.82
464.728	4.83
465.08	4.84
465.433	4.86
465.785	4.87
466.138	4.88
466.49	4.89
466.843	4.9
467.195	4.92
467.547	4.94
467.899	4.96
468.252	4.98
468.604	4.99
468.956	5.01
469.308	5.02
469.66	5.04
470.012	5.06
470.364	5.08
470.716	5.09
471.068	5.12
471.42	5.14
471.772	5.16
472.123	5.17
472.475	5.19
472.827	5.2
473.178	5.21
473.53	5.23
473.882	5.24
474.233	5.26
474.585	5.27
474.936	5.28
475.288	5.29
475.639	5.3
475.99	5.31
476.342	5.31
476.693	5.32
477.044	5.32
477.395	5.32
477.746	5.31
478.097	5.32
478.448	5.33
478.8	5.41
479.15	5.54
479.501	5.69
479.852	5.87
480.203	6.06
480.554	6.25
480.905	6.44
481.255	6.64
481.606	6.84
481.957	7.03
482.307	7.21
482.658	7.36
483.009	7.5
483.359	7.61
483.709	7.71
484.06	7.8
484.41	7.89
484.761	7.97
485.111	8.05
485.461	8.13
485.811	8.21
486.162	8.23
486.512	8.21
486.862	8.16
487.212	8.08
487.562	7.98
487.912	7.87
488.262	7.74
488.612	7.6
488.961	7.45
489.311	7.29
489.661	7.11
490.011	6.95
490.36	6.79
490.71	6.61
491.06	6.44
491.409	6.27
491.759	6.13
492.108	6.03
492.458	5.94
492.807	5.86
493.157	5.77
493.506	5.7
493.855	5.63
494.204	5.57
494.554	5.51
494.903	5.47
495.252	5.43
495.601	5.4
495.95	5.36
496.299	5.34
496.648	5.33
496.997	5.33
497.346	5.35
497.695	5.39
498.043	5.48
498.392	5.59
498.741	5.71
499.09	5.81
499.438	5.87
499.787	5.94
500.135	6
500.484	6.07
500.832	6.16
501.181	6.23
501.529	6.32
501.878	6.41
502.226	6.49
502.574	6.59
502.923	6.69
503.271	6.8
503.619	6.92
503.967	7.04
504.315	7.17
504.663	7.29
505.011	7.42
505.359	7.55
505.707	7.67
506.055	7.81
506.403	7.95
506.751	8.1
507.098	8.25
507.446	8.4
507.794	8.55
508.141	8.7
508.489	8.86
508.837	9.02
509.184	9.17
509.531	9.33
509.879	9.49
510.226	9.64
510.574	9.81
510.921	9.97
511.268	10.13
511.616	10.3
511.963	10.46
512.31	10.64
512.657	10.83
513.004	11.02
513.351	11.22
513.698	11.42
514.045	11.63
514.392	11.84
514.739	12.06
515.086	12.28
515.432	12.5
515.779	12.71
516.126	12.91
516.473	13.11
516.819	13.31
517.166	13.5
517.512	13.69
517.859	13.86
518.205	14.03
518.552	14.19
518.898	14.36
519.245	14.51
519.591	14.69
519.937	14.86
520.283	15.03
520.629	15.22
520.976	15.41
521.322	15.62
521.668	15.81
522.014	16.02
522.36	16.23
522.706	16.46
523.052	16.74
523.398	17.15
523.743	17.67
524.089	18.25
524.435	18.88
524.781	19.51
525.126	20.16
525.472	20.79
525.817	21.41
526.163	22
526.509	22.54
526.854	23.01
527.199	23.4
527.545	23.7
527.89	23.97
528.235	24.22
528.581	24.46
528.926	24.71
529.271	24.95
529.616	25.19
529.961	25.42
530.306	25.63
530.651	25.73
530.996	25.72
531.341	25.66
531.686	25.52
532.031	25.31
532.376	25.02
532.721	24.69
533.065	24.33
533.41	24.06
533.755	23.8
534.099	23.64
534.444	23.58
534.788	23.59
535.133	23.64
535.477	23.71
535.822	23.8
536.166	23.93
536.51	24.08
536.855	24.27
537.199	24.49
537.543	24.75
537.887	25.04
538.231	25.38
538.576	25.73
538.92	26.1
539.264	26.51
539.608	26.93
539.951	27.35
540.295	27.74
540.639	28
540.983	28.25
541.327	28.41
541.671	28.59
542.014	28.8
542.358	29.02
542.701	29.23
543.045	29.42
543.389	29.6
543.732	29.79
544.075	29.95
544.419	30.12
544.762	30.24
545.105	30.36
545.449	30.45
545.792	30.51
546.135	30.59
546.478	30.68
546.821	30.81
547.165	31.01
547.508	31.26
547.851	31.57
548.194	31.93
548.536	32.31
548.879	32.59
549.222	32.83
549.565	33.04
549.908	33.27
550.25	33.51
550.593	33.77
550.936	34.01
551.278	34.26
551.621	34.49
551.963	34.74
552.306	35
552.648	35.22
552.991	35.45
553.333	35.65
553.675	35.88
554.017	36.1
554.36	36.31
554.702	36.5
555.044	36.72
555.386	36.93
555.728	37.14
556.07	37.36
556.412	37.55
556.754	37.75
557.096	37.95
557.438	38.16
557.78	38.37
558.121	38.58
558.463	38.77
558.805	38.98
559.147	39.19
559.488	39.36
559.83	39.57
560.171	39.77
560.513	39.99
560.854	40.21
561.196	40.41
561.537	40.62
561.878	40.84
562.22	41.05
562.561	41.26
562.902	41.45
563.243	41.64
563.584	41.83
563.925	42.04
564.266	42.21
564.607	42.35
564.948	42.51
565.289	42.66
565.63	42.82
565.971	42.98
566.312	43.12
566.653	43.29
566.993	43.43
567.334	43.57
567.675	43.7
568.015	43.84
568.356	43.97
568.696	44.11
569.037	44.25
569.377	44.38
569.718	44.5
570.058	44.63
570.398	44.76
570.739	44.87
571.079	44.97
571.419	45.11
571.759	45.23
572.099	45.33
572.439	45.44
572.779	45.54
573.119	45.63
573.459	45.72
573.799	45.8
574.139	45.9
574.479	45.99
574.819	46.06
575.158	46.13
575.498	46.21
575.838	46.3
576.177	46.36
576.517	46.42
576.856	46.48
577.196	46.54
577.535	46.6
577.875	46.68
578.214	46.75
578.553	46.82
578.893	46.89
579.232	46.97
579.571	47.04
579.91	47.09
580.25	47.16
580.589	47.24
580.928	47.31
581.267	47.38
581.606	47.46
581.945	47.55
582.283	47.64
582.622	47.71
582.961	47.79
583.3	47.88
583.639	47.99
583.977	48.07
584.316	48.17
584.654	48.29
584.993	48.37
585.332	48.44
585.67	48.54
586.008	48.62
586.347	48.7
586.685	48.78
587.024	48.88
587.362	48.97
587.7	49.02
588.038	49.09
588.376	49.15
588.715	49.22
589.053	49.27
589.391	49.33
589.729	49.38
590.067	49.42
590.404	49.48
590.742	49.52
591.08	49.59
591.418	49.65
591.756	49.7
592.093	49.77
592.431	49.81
592.769	49.86
593.106	49.89
593.444	49.94
593.781	50
594.119	50.05
594.456	50.12
594.793	50.18
595.131	50.24
595.468	50.27
595.805	50.32
596.143	50.37
596.48	50.42
596.817	50.46
597.154	50.51
597.491	50.52
597.828	50.57
598.165	50.57
598.502	50.61
598.839	50.6
599.176	50.64
599.512	50.67
599.849	50.7
600.186	50.78
600.523	50.83
600.859	50.88
601.196	50.93
601.532	50.94
601.869	50.98
602.205	51.02
602.542	51.09
602.878	51.14
603.215	51.18
603.551	51.19
603.887	51.22
604.223	51.26
604.56	51.29
604.896	51.31
605.232	51.37
605.568	51.42
605.904	51.47
606.24	51.49
606.576	51.56
606.912	51.6
607.248	51.62
607.583	51.65
607.919	51.66
608.255	51.69
608.591	51.74
608.926	51.76
609.262	51.77
609.597	51.77
609.933	51.78
610.268	51.8
610.604	51.83
610.939	51.84
611.275	51.88
611.61	51.92
611.945	51.93
612.281	51.98
612.616	52
612.951	52
613.286	52.04
613.621	52.06
613.956	52.08
614.291	52.12
614.626	52.12
614.961	52.14
615.296	52.16
615.631	52.16
615.966	52.21
616.3	52.22
616.635	52.26
616.97	52.27
617.304	52.29
617.639	52.33
617.973	52.35
618.308	52.36
618.642	52.39
618.977	52.42
619.311	52.4
619.646	52.43
619.98	52.47
620.314	52.51
620.648	52.52
620.983	52.53
621.317	52.53
621.651	52.57
621.985	52.58
622.319	52.59
622.653	52.62
622.987	52.65
623.321	52.69
623.655	52.7
623.988	52.74
624.322	52.78
624.656	52.78
624.99	52.81
625.323	52.82
625.657	52.82
625.99	52.85
626.324	52.88
626.657	52.89
626.991	52.9
627.324	52.9
627.658	52.91
627.991	52.92
628.324	52.94
628.657	52.93
628.991	52.96
629.324	53
629.657	53.01
629.99	53
630.323	53.02
630.656	53.06
630.989	53.07
631.322	53.07
631.655	53.07
631.987	53.08
632.32	53.11
632.653	53.13
632.986	53.15
633.318	53.15
633.651	53.16
633.984	53.2
634.316	53.21
634.649	53.22
634.981	53.25
635.313	53.3
635.646	53.31
635.978	53.31
636.31	53.33
636.643	53.34
636.975	53.38
637.307	53.4
637.639	53.36
637.971	53.36
638.303	53.37
638.635	53.43
638.967	53.48
639.299	53.47
639.631	53.5
639.963	53.5
640.295	53.54
640.626	53.54
640.958	53.54
641.29	53.58
641.621	53.58
641.953	53.56
642.285	53.55
642.616	53.6
642.948	53.62
643.279	53.62
643.61	53.65
643.942	53.69
644.273	53.68
644.604	53.73
644.936	53.77
645.267	53.8
645.598	53.81
645.929	53.84
646.26	53.82
646.591	53.81
646.922	53.85
647.253	53.84
647.584	53.85
647.915	53.87
648.245	53.87
648.576	53.9
648.907	53.93
649.238	53.94
649.568	53.94
649.899	53.95
650.229	54
650.56	54.03
650.89	54.01
651.221	54.05
651.551	54.08
651.882	54.11
652.212	54.14
652.542	54.17
652.872	54.13
653.203	54.18
653.533	54.22
653.863	54.2
654.193	54.24
654.523	54.28
654.853	54.29
655.183	54.29
655.513	54.33
655.843	54.33
656.172	54.36
656.502	54.4
656.832	54.43
657.162	54.43
657.491	54.44
657.821	54.45
658.15	54.45
658.48	54.44
658.809	54.45
659.139	54.44
659.468	54.44
659.798	54.48
660.127	54.49
660.456	54.5
660.785	54.51
661.115	54.51
661.444	54.53
661.773	54.55
662.102	54.6
662.431	54.6
662.76	54.63
663.089	54.62
663.418	54.64
663.747	54.64
664.076	54.67
664.404	54.66
664.733	54.66
665.062	54.69
665.39	54.69
665.719	54.68
666.048	54.69
666.376	54.72
666.705	54.75
667.033	54.77
667.362	54.78
667.69	54.8
668.018	54.86
668.347	54.85
668.675	54.82
