Data from UWBM53665_Reflection_00009.txt Node
Date: Sun May 02 13:13:33 EDT 2021
User: vgr7
Spectrometer: USB2G7710
Scans to average: 10
Trigger mode: 4
Integration Time (sec): 1.000000E-1
Electric dark correction enabled: true
Boxcar width: 20
XAxis mode: Wavelengths
Number of Pixels in Spectrum: 2048
>>>>>Begin Spectral Data<<<<<
177.721	100.3
178.105	100.29
178.488	100.01
178.871	99.84
179.254	99.55
179.636	98.12
180.019	96.22
180.402	95.49
180.785	93.19
181.168	91.79
181.55	89.41
181.933	110.85
182.316	112.9
182.698	113.28
183.081	114.48
183.463	114.6
183.846	114.74
184.228	114.06
184.611	115.63
184.993	118.47
185.376	120.35
185.758	-40.11
186.14	4.45
186.522	25.73
186.904	34.43
187.287	39.33
187.669	41.14
188.051	42.84
188.433	44.95
188.815	41.36
189.197	38.95
189.579	39.58
189.961	38.29
190.342	36.31
190.724	36.58
191.106	36.6
191.488	36.67
191.869	33.26
192.251	34.55
192.633	33.79
193.014	32.15
193.396	31.65
193.777	34.9
194.159	34.58
194.54	32.63
194.922	31
195.303	31.92
195.684	32.39
196.065	31.25
196.447	28.45
196.828	27.22
197.209	28.5
197.59	21.27
197.971	20.25
198.352	20.34
198.733	20.71
199.114	17.58
199.495	16.83
199.876	16.16
200.257	14.79
200.638	13.69
201.018	9.92
201.399	9.03
201.78	6.28
202.16	7.32
202.541	8.03
202.922	8.26
203.302	6.41
203.683	7.92
204.063	6.46
204.444	7.63
204.824	10.04
205.204	10.93
205.585	17.38
205.965	16.26
206.345	16.76
206.725	11.7
207.106	10.5
207.486	10.76
207.866	10.31
208.246	10.84
208.626	12.63
209.006	15.8
209.386	13.07
209.766	13.38
210.145	12.59
210.525	12.51
210.905	13.18
211.285	15.5
211.664	15.6
212.044	17.85
212.424	17.48
212.803	12.41
213.183	14.74
213.562	15.47
213.942	15.72
214.321	14.21
214.701	13.96
215.08	14.61
215.459	14.38
215.838	14.24
216.218	15.38
216.597	13.61
216.976	10.76
217.355	10.56
217.734	8.67
218.113	9.42
218.492	9.95
218.871	8.47
219.25	6.6
219.629	7.05
220.008	7.62
220.387	8.54
220.766	8.66
221.144	8.1
221.523	9.27
221.902	10.05
222.28	10.75
222.659	12.17
223.037	11.47
223.416	11.88
223.794	12.21
224.173	11.78
224.551	11.71
224.929	12
225.308	12.81
225.686	12.6
226.064	12.61
226.442	12.2
226.821	10.94
227.199	10.4
227.577	9.75
227.955	9.12
228.333	8.6
228.711	8.19
229.089	8.24
229.467	7.55
229.845	7.95
230.222	7.95
230.6	8.3
230.978	8.38
231.356	7.83
231.733	7.56
232.111	7.86
232.488	7.68
232.866	7.86
233.243	7.75
233.621	7.69
233.998	7.25
234.376	7.31
234.753	7.41
235.13	7.16
235.508	7.51
235.885	7.23
236.262	7.16
236.639	7.28
237.016	7.22
237.393	7.04
237.77	6.79
238.147	6.61
238.524	6.57
238.901	6.52
239.278	6.42
239.655	6.35
240.032	6.16
240.409	6.13
240.785	5.96
241.162	5.98
241.539	5.86
241.915	5.82
242.292	5.83
242.668	5.73
243.045	5.69
243.421	5.57
243.798	5.54
244.174	5.53
244.551	5.47
244.927	5.3
245.303	5.24
245.679	5.22
246.056	5.14
246.432	5.06
246.808	4.83
247.184	4.82
247.56	4.79
247.936	4.79
248.312	4.74
248.688	4.76
249.064	4.7
249.44	4.7
249.815	4.71
250.191	4.65
250.567	4.64
250.943	4.69
251.318	4.72
251.694	4.64
252.069	4.55
252.445	4.53
252.82	4.6
253.196	4.58
253.571	4.52
253.947	4.61
254.322	4.54
254.697	4.66
255.073	4.64
255.448	4.61
255.823	4.57
256.198	4.52
256.573	4.33
256.948	4.33
257.323	4.32
257.698	4.24
258.073	4.24
258.448	4.13
258.823	4.11
259.198	4.11
259.573	4.11
259.948	4.13
260.322	4.11
260.697	4.13
261.072	4.13
261.446	4.11
261.821	4.09
262.195	4.05
262.57	4.03
262.944	4.02
263.319	3.99
263.693	4.01
264.067	4.05
264.442	4.15
264.816	4.13
265.19	4.1
265.564	4.15
265.938	4.12
266.313	4.14
266.687	4.09
267.061	4.09
267.435	4.08
267.809	4.06
268.183	4.06
268.556	4.1
268.93	4.11
269.304	4.09
269.678	4.07
270.051	4.04
270.425	4.04
270.799	4.08
271.172	4.08
271.546	4.1
271.919	4.12
272.293	4.09
272.666	4.1
273.04	4.13
273.413	4.08
273.787	4.06
274.16	4.07
274.533	4.09
274.906	4.08
275.279	4.11
275.653	4.08
276.026	4.06
276.399	4.04
276.772	4.06
277.145	4.09
277.518	4.12
277.891	4.15
278.263	4.16
278.636	4.17
279.009	4.2
279.382	4.17
279.755	4.12
280.127	4.14
280.5	4.14
280.872	4.14
281.245	4.26
281.617	4.29
281.99	4.33
282.362	4.37
282.735	4.36
283.107	4.35
283.479	4.36
283.852	4.38
284.224	4.41
284.596	4.4
284.968	4.3
285.34	4.3
285.713	4.29
286.085	4.23
286.457	4.24
286.829	4.22
287.201	4.24
287.572	4.3
287.944	4.31
288.316	4.35
288.688	4.41
289.06	4.42
289.431	4.45
289.803	4.46
290.175	4.49
290.546	4.53
290.918	4.57
291.289	4.55
291.661	4.59
292.032	4.57
292.403	4.62
292.775	4.71
293.146	4.75
293.517	4.79
293.889	4.89
294.26	4.91
294.631	4.95
295.002	5.02
295.373	5.09
295.744	5.11
296.115	5.14
296.486	5.11
296.857	5.15
297.228	5.18
297.599	5.21
297.97	5.24
298.34	5.29
298.711	5.28
299.082	5.33
299.452	5.38
299.823	5.46
300.194	5.51
300.564	5.56
300.935	5.61
301.305	5.63
301.676	5.65
302.046	5.7
302.416	5.75
302.787	5.81
303.157	5.81
303.527	5.87
303.897	5.93
304.267	6
304.637	6.08
305.008	6.17
305.378	6.24
305.748	6.29
306.117	6.43
306.487	6.55
306.857	6.67
307.227	6.75
307.597	6.79
307.967	6.87
308.336	6.92
308.706	7.01
309.076	7.05
309.445	7.12
309.815	7.07
310.184	7.13
310.554	7.13
310.923	7.22
311.293	7.3
311.662	7.36
312.031	7.4
312.401	7.46
312.77	7.5
313.139	7.55
313.508	7.63
313.877	7.64
314.246	7.68
314.616	7.71
314.985	7.72
315.353	7.78
315.722	7.83
316.091	7.88
316.46	7.95
316.829	8.05
317.198	8.13
317.567	8.31
317.935	8.39
318.304	8.49
318.672	8.59
319.041	8.66
319.41	8.73
319.778	8.82
320.147	8.9
320.515	8.97
320.883	9.03
321.252	9.02
321.62	9.13
321.988	9.19
322.357	9.24
322.725	9.37
323.093	9.42
323.461	9.46
323.829	9.51
324.197	9.56
324.565	9.59
324.933	9.66
325.301	9.68
325.669	9.71
326.037	9.75
326.405	9.75
326.772	9.77
327.14	9.82
327.508	9.83
327.875	9.87
328.243	9.92
328.61	9.92
328.978	9.96
329.346	9.99
329.713	9.99
330.08	10.01
330.448	10.03
330.815	10.03
331.182	10.07
331.55	10.08
331.917	10.11
332.284	10.13
332.651	10.17
333.018	10.19
333.385	10.22
333.752	10.24
334.119	10.27
334.486	10.3
334.853	10.3
335.22	10.32
335.587	10.33
335.954	10.35
336.32	10.38
336.687	10.39
337.054	10.4
337.42	10.42
337.787	10.43
338.153	10.45
338.52	10.49
338.886	10.53
339.253	10.52
339.619	10.52
339.986	10.5
340.352	10.51
340.718	10.52
341.084	10.52
341.451	10.52
341.817	10.52
342.183	10.5
342.549	10.53
342.915	10.52
343.281	10.53
343.647	10.54
344.013	10.57
344.379	10.57
344.745	10.59
345.11	10.59
345.476	10.6
345.842	10.61
346.208	10.58
346.573	10.57
346.939	10.58
347.304	10.57
347.67	10.56
348.035	10.56
348.401	10.54
348.766	10.54
349.132	10.54
349.497	10.53
349.862	10.52
350.228	10.52
350.593	10.51
350.958	10.48
351.323	10.44
351.688	10.44
352.053	10.41
352.418	10.39
352.783	10.35
353.148	10.31
353.513	10.27
353.878	10.25
354.243	10.21
354.608	10.18
354.972	10.15
355.337	10.11
355.702	10.06
356.066	10.03
356.431	9.98
356.795	9.95
357.16	9.9
357.524	9.85
357.889	9.83
358.253	9.79
358.618	9.75
358.982	9.72
359.346	9.69
359.71	9.64
360.075	9.61
360.439	9.57
360.803	9.53
361.167	9.48
361.531	9.46
361.895	9.42
362.259	9.37
362.623	9.32
362.987	9.27
363.351	9.23
363.714	9.19
364.078	9.14
364.442	9.09
364.806	9.04
365.169	8.97
365.533	8.91
365.896	8.85
366.26	8.8
366.623	8.73
366.987	8.66
367.35	8.6
367.714	8.55
368.077	8.49
368.44	8.43
368.803	8.36
369.167	8.3
369.53	8.23
369.893	8.16
370.256	8.09
370.619	8.02
370.982	7.94
371.345	7.85
371.708	7.78
372.071	7.7
372.434	7.64
372.797	7.58
373.159	7.52
373.522	7.45
373.885	7.37
374.247	7.29
374.61	7.22
374.973	7.14
375.335	7.05
375.698	6.99
376.06	6.92
376.423	6.85
376.785	6.79
377.147	6.72
377.51	6.66
377.872	6.6
378.234	6.54
378.596	6.49
378.958	6.43
379.321	6.37
379.683	6.32
380.045	6.26
380.407	6.21
380.769	6.15
381.13	6.1
381.492	6.06
381.854	6.01
382.216	5.96
382.578	5.9
382.939	5.86
383.301	5.8
383.663	5.76
384.024	5.71
384.386	5.66
384.747	5.61
385.109	5.56
385.47	5.52
385.832	5.49
386.193	5.44
386.554	5.4
386.916	5.36
387.277	5.31
387.638	5.29
387.999	5.25
388.36	5.22
388.721	5.19
389.082	5.16
389.443	5.13
389.804	5.1
390.165	5.07
390.526	5.03
390.887	5
391.248	4.96
391.609	4.93
391.969	4.9
392.33	4.88
392.691	4.85
393.051	4.82
393.412	4.78
393.772	4.75
394.133	4.73
394.493	4.69
394.854	4.66
395.214	4.62
395.574	4.59
395.935	4.56
396.295	4.52
396.655	4.49
397.015	4.46
397.376	4.43
397.736	4.4
398.096	4.37
398.456	4.35
398.816	4.33
399.176	4.29
399.535	4.27
399.895	4.25
400.255	4.22
400.615	4.2
400.975	4.18
401.334	4.16
401.694	4.14
402.054	4.12
402.413	4.08
402.773	4.06
403.132	4.04
403.492	4.02
403.851	4.01
404.211	3.99
404.57	3.98
404.929	3.98
405.288	3.96
405.648	3.95
406.007	3.95
406.366	3.94
406.725	3.94
407.084	3.92
407.443	3.91
407.802	3.89
408.161	3.87
408.52	3.86
408.879	3.85
409.238	3.84
409.596	3.83
409.955	3.83
410.314	3.82
410.673	3.81
411.031	3.81
411.39	3.8
411.748	3.8
412.107	3.79
412.465	3.79
412.824	3.81
413.182	3.81
413.54	3.82
413.899	3.83
414.257	3.85
414.615	3.88
414.974	3.9
415.332	3.92
415.69	3.95
416.048	3.96
416.406	4
416.764	4.01
417.122	4.04
417.48	4.06
417.838	4.07
418.195	4.09
418.553	4.1
418.911	4.1
419.269	4.1
419.626	4.09
419.984	4.08
420.342	4.06
420.699	4.04
421.057	4.02
421.414	4
421.772	3.98
422.129	3.97
422.486	3.96
422.844	3.95
423.201	3.94
423.558	3.94
423.915	3.93
424.273	3.92
424.63	3.92
424.987	3.91
425.344	3.9
425.701	3.9
426.058	3.89
426.415	3.89
426.772	3.88
427.128	3.87
427.485	3.85
427.842	3.84
428.199	3.82
428.555	3.8
428.912	3.78
429.269	3.75
429.625	3.74
429.982	3.71
430.338	3.68
430.695	3.66
431.051	3.62
431.407	3.6
431.764	3.58
432.12	3.56
432.476	3.55
432.832	3.54
433.189	3.54
433.545	3.55
433.901	3.56
434.257	3.57
434.613	3.59
434.969	3.61
435.325	3.63
435.681	3.67
436.036	3.68
436.392	3.69
436.748	3.7
437.104	3.71
437.459	3.72
437.815	3.73
438.171	3.75
438.526	3.77
438.882	3.79
439.237	3.82
439.593	3.85
439.948	3.88
440.304	3.91
440.659	3.93
441.014	3.94
441.369	3.97
441.725	3.98
442.08	4
442.435	4
442.79	4.01
443.145	4.01
443.5	4.01
443.855	4.01
444.21	4
444.565	4
444.92	3.99
445.275	3.98
445.629	3.97
445.984	3.96
446.339	3.95
446.693	3.95
447.048	3.93
447.403	3.92
447.757	3.9
448.112	3.88
448.466	3.85
448.82	3.84
449.175	3.82
449.529	3.8
449.883	3.78
450.238	3.75
450.592	3.75
450.946	3.74
451.3	3.74
451.654	3.74
452.008	3.74
452.362	3.74
452.716	3.74
453.07	3.75
453.424	3.74
453.778	3.73
454.132	3.72
454.486	3.71
454.839	3.69
455.193	3.67
455.547	3.66
455.9	3.63
456.254	3.61
456.607	3.59
456.961	3.57
457.314	3.55
457.668	3.54
458.021	3.54
458.375	3.53
458.728	3.54
459.081	3.54
459.434	3.54
459.787	3.55
460.141	3.56
460.494	3.57
460.847	3.57
461.2	3.57
461.553	3.59
461.906	3.59
462.259	3.6
462.611	3.6
462.964	3.61
463.317	3.62
463.67	3.62
464.022	3.63
464.375	3.64
464.728	3.64
465.08	3.65
465.433	3.66
465.785	3.66
466.138	3.65
466.49	3.64
466.843	3.63
467.195	3.62
467.547	3.61
467.899	3.59
468.252	3.57
468.604	3.56
468.956	3.54
469.308	3.54
469.66	3.54
470.012	3.53
470.364	3.54
470.716	3.55
471.068	3.57
471.42	3.59
471.772	3.61
472.123	3.62
472.475	3.64
472.827	3.65
473.178	3.66
473.53	3.67
473.882	3.69
474.233	3.71
474.585	3.74
474.936	3.79
475.288	3.87
475.639	3.97
475.99	4.08
476.342	4.21
476.693	4.35
477.044	4.48
477.395	4.63
477.746	4.78
478.097	4.93
478.448	5.08
478.8	5.23
479.15	5.36
479.501	5.48
479.852	5.59
480.203	5.69
480.554	5.79
480.905	5.89
481.255	5.98
481.606	6.07
481.957	6.14
482.307	6.22
482.658	6.3
483.009	6.37
483.359	6.44
483.709	6.51
484.06	6.57
484.41	6.64
484.761	6.7
485.111	6.76
485.461	6.81
485.811	6.87
486.162	6.91
486.512	6.95
486.862	6.99
487.212	7.01
487.562	7.04
487.912	7.05
488.262	7.05
488.612	7.05
488.961	7.03
489.311	7.01
489.661	6.95
490.011	6.88
490.36	6.8
490.71	6.7
491.06	6.59
491.409	6.47
491.759	6.35
492.108	6.22
492.458	6.09
492.807	5.96
493.157	5.82
493.506	5.69
493.855	5.58
494.204	5.47
494.554	5.36
494.903	5.27
495.252	5.19
495.601	5.11
495.95	5.03
496.299	4.96
496.648	4.89
496.997	4.83
497.346	4.78
497.695	4.72
498.043	4.68
498.392	4.65
498.741	4.61
499.09	4.57
499.438	4.54
499.787	4.52
500.135	4.51
500.484	4.51
500.832	4.51
501.181	4.53
501.529	4.56
501.878	4.61
502.226	4.66
502.574	4.73
502.923	4.8
503.271	4.87
503.619	4.95
503.967	5.04
504.315	5.12
504.663	5.21
505.011	5.3
505.359	5.4
505.707	5.5
506.055	5.6
506.403	5.71
506.751	5.83
507.098	5.95
507.446	6.07
507.794	6.2
508.141	6.34
508.489	6.49
508.837	6.66
509.184	6.82
509.531	7
509.879	7.18
510.226	7.38
510.574	7.6
510.921	7.81
511.268	8.05
511.616	8.28
511.963	8.53
512.31	8.78
512.657	9.03
513.004	9.29
513.351	9.55
513.698	9.79
514.045	10.02
514.392	10.26
514.739	10.49
515.086	10.71
515.432	10.94
515.779	11.17
516.126	11.4
516.473	11.66
516.819	11.93
517.166	12.24
517.512	12.56
517.859	12.89
518.205	13.25
518.552	13.64
518.898	14.06
519.245	14.53
519.591	15.09
519.937	15.73
520.283	16.46
520.629	17.25
520.976	18.08
521.322	18.94
521.668	19.82
522.014	20.71
522.36	21.61
522.706	22.49
523.052	23.35
523.398	24.17
523.743	24.92
524.089	25.63
524.435	26.3
524.781	26.97
525.126	27.62
525.472	28.27
525.817	28.91
526.163	29.54
526.509	30.16
526.854	30.78
527.199	31.39
527.545	32
527.89	32.62
528.235	33.24
528.581	33.82
528.926	34.38
529.271	34.91
529.616	35.42
529.961	35.92
530.306	36.39
530.651	36.83
530.996	37.23
531.341	37.6
531.686	37.96
532.031	38.3
532.376	38.66
532.721	39.06
533.065	39.49
533.41	39.93
533.755	40.33
534.099	40.68
534.444	40.99
534.788	41.27
535.133	41.54
535.477	41.77
535.822	41.96
536.166	42.11
536.51	42.18
536.855	42.18
537.199	42.14
537.543	42.1
537.887	42.09
538.231	42.12
538.576	42.15
538.92	42.16
539.264	42.16
539.608	42.13
539.951	42.07
540.295	41.99
540.639	41.9
540.983	41.78
541.327	41.66
541.671	41.49
542.014	41.37
542.358	41.25
542.701	41.22
543.045	41.28
543.389	41.37
543.732	41.48
544.075	41.61
544.419	41.76
544.762	41.92
545.105	42.1
545.449	42.29
545.792	42.48
546.135	42.68
546.478	42.82
546.821	42.89
547.165	42.89
547.508	42.82
547.851	42.7
548.194	42.52
548.536	42.3
548.879	42.03
549.222	41.74
549.565	41.42
549.908	41.12
550.25	40.85
550.593	40.64
550.936	40.51
551.278	40.46
551.621	40.45
551.963	40.46
552.306	40.5
552.648	40.58
552.991	40.68
553.333	40.8
553.675	40.96
554.017	41.17
554.36	41.4
554.702	41.67
555.044	41.97
555.386	42.32
555.728	42.72
556.07	43.05
556.412	43.4
556.754	43.66
557.096	43.85
557.438	44.05
557.78	44.26
558.121	44.46
558.463	44.66
558.805	44.85
559.147	45.05
559.488	45.23
559.83	45.42
560.171	45.62
560.513	45.81
560.854	45.99
561.196	46.17
561.537	46.35
561.878	46.52
562.22	46.69
562.561	46.85
562.902	47.02
563.243	47.18
563.584	47.35
563.925	47.51
564.266	47.66
564.607	47.83
564.948	48
565.289	48.16
565.63	48.31
565.971	48.46
566.312	48.61
566.653	48.75
566.993	48.89
567.334	49.03
567.675	49.17
568.015	49.3
568.356	49.42
568.696	49.54
569.037	49.66
569.377	49.78
569.718	49.9
570.058	50.01
570.398	50.12
570.739	50.23
571.079	50.33
571.419	50.42
571.759	50.51
572.099	50.59
572.439	50.67
572.779	50.75
573.119	50.83
573.459	50.91
573.799	51
574.139	51.08
574.479	51.16
574.819	51.23
575.158	51.31
575.498	51.38
575.838	51.45
576.177	51.52
576.517	51.6
576.856	51.67
577.196	51.74
577.535	51.81
577.875	51.88
578.214	51.96
578.553	52.03
578.893	52.08
579.232	52.13
579.571	52.2
579.91	52.26
580.25	52.32
580.589	52.38
580.928	52.45
581.267	52.51
581.606	52.58
581.945	52.65
582.283	52.72
582.622	52.79
582.961	52.87
583.3	52.93
583.639	53
583.977	53.07
584.316	53.13
584.654	53.21
584.993	53.28
585.332	53.35
585.67	53.42
586.008	53.49
586.347	53.57
586.685	53.65
587.024	53.73
587.362	53.8
587.7	53.88
588.038	53.96
588.376	54.04
588.715	54.12
589.053	54.21
589.391	54.3
589.729	54.38
590.067	54.46
590.404	54.55
590.742	54.62
591.08	54.7
591.418	54.77
591.756	54.83
592.093	54.89
592.431	54.95
592.769	55.01
593.106	55.08
593.444	55.13
593.781	55.18
594.119	55.24
594.456	55.29
594.793	55.34
595.131	55.39
595.468	55.43
595.805	55.49
596.143	55.55
596.48	55.61
596.817	55.67
597.154	55.74
597.491	55.81
597.828	55.87
598.165	55.94
598.502	55.99
598.839	56.04
599.176	56.1
599.512	56.15
599.849	56.2
600.186	56.25
600.523	56.3
600.859	56.35
601.196	56.4
601.532	56.44
601.869	56.49
602.205	56.52
602.542	56.56
602.878	56.6
603.215	56.63
603.551	56.66
603.887	56.7
604.223	56.72
604.56	56.76
604.896	56.8
605.232	56.83
605.568	56.87
605.904	56.9
606.24	56.93
606.576	56.94
606.912	56.98
607.248	57
607.583	57.05
607.919	57.07
608.255	57.08
608.591	57.11
608.926	57.13
609.262	57.16
609.597	57.19
609.933	57.21
610.268	57.24
610.604	57.25
610.939	57.26
611.275	57.27
611.61	57.29
611.945	57.3
612.281	57.32
612.616	57.34
612.951	57.35
613.286	57.37
613.621	57.38
613.956	57.39
614.291	57.42
614.626	57.42
614.961	57.42
615.296	57.41
615.631	57.43
615.966	57.44
616.3	57.46
616.635	57.48
616.97	57.49
617.304	57.52
617.639	57.54
617.973	57.55
618.308	57.56
618.642	57.58
618.977	57.6
619.311	57.61
619.646	57.65
619.98	57.68
620.314	57.72
620.648	57.76
620.983	57.78
621.317	57.8
621.651	57.81
621.985	57.86
622.319	57.89
622.653	57.91
622.987	57.93
623.321	57.94
623.655	57.96
623.988	57.98
624.322	58.02
624.656	58.06
624.99	58.09
625.323	58.12
625.657	58.12
625.99	58.16
626.324	58.17
626.657	58.2
626.991	58.22
627.324	58.25
627.658	58.28
627.991	58.29
628.324	58.31
628.657	58.32
628.991	58.33
629.324	58.35
629.657	58.35
629.99	58.37
630.323	58.38
630.656	58.4
630.989	58.41
631.322	58.43
631.655	58.46
631.987	58.47
632.32	58.48
632.653	58.5
632.986	58.51
633.318	58.51
633.651	58.53
633.984	58.54
634.316	58.54
634.649	58.55
634.981	58.57
635.313	58.6
635.646	58.6
635.978	58.61
636.31	58.62
636.643	58.63
636.975	58.65
637.307	58.67
637.639	58.69
637.971	58.7
638.303	58.71
638.635	58.71
638.967	58.72
639.299	58.74
639.631	58.75
639.963	58.77
640.295	58.76
640.626	58.78
640.958	58.79
641.29	58.8
641.621	58.82
641.953	58.86
642.285	58.9
642.616	58.95
642.948	58.96
643.279	58.99
643.61	59.01
643.942	59.03
644.273	59.04
644.604	59.06
644.936	59.07
645.267	59.07
645.598	59.09
645.929	59.1
646.26	59.12
646.591	59.14
646.922	59.16
647.253	59.18
647.584	59.2
647.915	59.22
648.245	59.24
648.576	59.25
648.907	59.26
649.238	59.27
649.568	59.29
649.899	59.3
650.229	59.3
650.56	59.31
650.89	59.31
651.221	59.31
651.551	59.34
651.882	59.33
652.212	59.35
652.542	59.36
652.872	59.37
653.203	59.39
653.533	59.41
653.863	59.43
654.193	59.44
654.523	59.45
654.853	59.45
655.183	59.47
655.513	59.47
655.843	59.48
656.172	59.5
656.502	59.51
656.832	59.52
657.162	59.51
657.491	59.53
657.821	59.53
658.15	59.54
658.48	59.55
658.809	59.56
659.139	59.59
659.468	59.6
659.798	59.62
660.127	59.62
660.456	59.62
660.785	59.64
661.115	59.64
661.444	59.65
661.773	59.67
662.102	59.68
662.431	59.67
662.76	59.69
663.089	59.69
663.418	59.69
663.747	59.72
664.076	59.75
664.404	59.76
664.733	59.78
665.062	59.78
665.39	59.8
665.719	59.8
666.048	59.81
666.376	59.8
666.705	59.81
667.033	59.79
667.362	59.79
667.69	59.81
668.018	59.81
668.347	59.82
668.675	59.82
