Data from UWBM59056_Reflection_00003.txt Node
Date: Sun May 02 13:44:04 EDT 2021
User: vgr7
Spectrometer: USB2G7710
Scans to average: 10
Trigger mode: 4
Integration Time (sec): 1.000000E-1
Electric dark correction enabled: true
Boxcar width: 20
XAxis mode: Wavelengths
Number of Pixels in Spectrum: 2048
>>>>>Begin Spectral Data<<<<<
177.721	36.36
178.105	13.9
178.488	9.72
178.871	8.46
179.254	0.21
179.636	1.73
180.019	0.75
180.402	-5.86
180.785	2.08
181.168	8.61
181.55	3.95
181.933	12.34
182.316	12.3
182.698	9.09
183.081	6.23
183.463	4.11
183.846	4.95
184.228	5.95
184.611	3.15
184.993	3.85
185.376	4.66
185.758	7
186.14	13.03
186.522	12.11
186.904	11.05
187.287	10.88
187.669	11.28
188.051	12.34
188.433	12.69
188.815	8.98
189.197	7.87
189.579	6.41
189.961	4.34
190.342	4.15
190.724	5.38
191.106	4.24
191.488	4.72
191.869	3.14
192.251	2.21
192.633	1.48
193.014	1.26
193.396	-1.89
193.777	-0.24
194.159	0.62
194.54	1.18
194.922	0.83
195.303	-0.81
195.684	-1.74
196.065	-1.64
196.447	-1.38
196.828	-2.46
197.209	-3.64
197.59	-7.87
197.971	-8.72
198.352	-7.34
198.733	-5.54
199.114	-4.17
199.495	-3.63
199.876	-4.77
200.257	-3.14
200.638	-6.61
201.018	-5.75
201.399	-6.23
201.78	-7.44
202.16	-7.91
202.541	-9.23
202.922	-9.6
203.302	-8.46
203.683	-8.31
204.063	-8.48
204.444	-8.69
204.824	-9.85
205.204	-11.92
205.585	-10.88
205.965	-9.63
206.345	-11.55
206.725	-11.18
207.106	-12.75
207.486	-12.15
207.866	-11.99
208.246	-12.77
208.626	-14.5
209.006	-13.14
209.386	-13.93
209.766	-14.52
210.145	-16.09
210.525	-15.09
210.905	-13.21
211.285	-13.84
211.664	-12.21
212.044	-13.07
212.424	-13.23
212.803	-12.07
213.183	-10.63
213.562	-9.26
213.942	-9.23
214.321	-10.5
214.701	-11.81
215.08	-11.5
215.459	-10.46
215.838	-11.7
216.218	-9.55
216.597	-10.05
216.976	-9.44
217.355	-9.1
217.734	-9.27
218.113	-8.57
218.492	-8.85
218.871	-9.33
219.25	-9.18
219.629	-9.03
220.008	-7.41
220.387	-7.17
220.766	-5.62
221.144	-4.92
221.523	-3.83
221.902	-3.51
222.28	-3.93
222.659	-2.68
223.037	-2.59
223.416	-1.22
223.794	-0.47
224.173	0.84
224.551	0.41
224.929	1.38
225.308	1.71
225.686	2.41
226.064	2.34
226.442	2.42
226.821	3.05
227.199	3.02
227.577	3.22
227.955	3.67
228.333	3.93
228.711	3.4
229.089	2.68
229.467	2.41
229.845	2.64
230.222	2.81
230.6	2.71
230.978	2.7
231.356	2.98
231.733	3.36
232.111	3.21
232.488	3.35
232.866	3.15
233.243	3.21
233.621	3.35
233.998	3.41
234.376	3.58
234.753	3.4
235.13	3.55
235.508	3.7
235.885	3.82
236.262	3.97
236.639	3.9
237.016	3.87
237.393	4
237.77	4.2
238.147	4.22
238.524	4.27
238.901	4.12
239.278	4.2
239.655	4.25
240.032	4.33
240.409	4.31
240.785	4.36
241.162	4.37
241.539	4.35
241.915	4.43
242.292	4.47
242.668	4.46
243.045	4.44
243.421	4.37
243.798	4.36
244.174	4.43
244.551	4.48
244.927	4.51
245.303	4.5
245.679	4.52
246.056	4.47
246.432	4.49
246.808	4.45
247.184	4.45
247.56	4.49
247.936	4.45
248.312	4.47
248.688	4.5
249.064	4.48
249.44	4.49
249.815	4.45
250.191	4.42
250.567	4.44
250.943	4.41
251.318	4.36
251.694	4.33
252.069	4.33
252.445	4.35
252.82	4.32
253.196	4.28
253.571	4.27
253.947	4.27
254.322	4.27
254.697	4.26
255.073	4.23
255.448	4.23
255.823	4.19
256.198	4.16
256.573	4.14
256.948	4.15
257.323	4.1
257.698	4.04
258.073	4.02
258.448	4.01
258.823	4.01
259.198	4.01
259.573	3.98
259.948	3.96
260.322	3.95
260.697	3.93
261.072	3.9
261.446	3.9
261.821	3.88
262.195	3.88
262.57	3.86
262.944	3.84
263.319	3.87
263.693	3.84
264.067	3.82
264.442	3.84
264.816	3.82
265.19	3.84
265.564	3.86
265.938	3.86
266.313	3.86
266.687	3.87
267.061	3.87
267.435	3.86
267.809	3.82
268.183	3.82
268.556	3.82
268.93	3.8
269.304	3.78
269.678	3.8
270.051	3.78
270.425	3.76
270.799	3.75
271.172	3.77
271.546	3.77
271.919	3.78
272.293	3.76
272.666	3.76
273.04	3.79
273.413	3.82
273.787	3.84
274.16	3.84
274.533	3.82
274.906	3.83
275.279	3.83
275.653	3.85
276.026	3.86
276.399	3.86
276.772	3.88
277.145	3.87
277.518	3.89
277.891	3.89
278.263	3.87
278.636	3.88
279.009	3.89
279.382	3.9
279.755	3.9
280.127	3.91
280.5	3.91
280.872	3.94
281.245	3.93
281.617	3.92
281.99	3.94
282.362	3.93
282.735	3.93
283.107	3.95
283.479	3.94
283.852	3.95
284.224	3.95
284.596	3.94
284.968	3.94
285.34	3.95
285.713	3.96
286.085	3.96
286.457	3.96
286.829	3.96
287.201	3.95
287.572	3.96
287.944	3.97
288.316	3.95
288.688	3.95
289.06	3.93
289.431	3.93
289.803	3.96
290.175	3.96
290.546	3.97
290.918	3.96
291.289	3.97
291.661	3.99
292.032	3.99
292.403	4.01
292.775	4.01
293.146	4.02
293.517	4.04
293.889	4.05
294.26	4.06
294.631	4.07
295.002	4.09
295.373	4.1
295.744	4.1
296.115	4.08
296.486	4.1
296.857	4.13
297.228	4.12
297.599	4.13
297.97	4.13
298.34	4.13
298.711	4.15
299.082	4.15
299.452	4.17
299.823	4.18
300.194	4.18
300.564	4.17
300.935	4.19
301.305	4.2
301.676	4.21
302.046	4.22
302.416	4.24
302.787	4.22
303.157	4.22
303.527	4.23
303.897	4.21
304.267	4.22
304.637	4.22
305.008	4.22
305.378	4.22
305.748	4.23
306.117	4.23
306.487	4.22
306.857	4.23
307.227	4.22
307.597	4.21
307.967	4.21
308.336	4.21
308.706	4.19
309.076	4.17
309.445	4.18
309.815	4.15
310.184	4.13
310.554	4.12
310.923	4.12
311.293	4.11
311.662	4.1
312.031	4.07
312.401	4.08
312.77	4.08
313.139	4.1
313.508	4.1
313.877	4.1
314.246	4.11
314.616	4.11
314.985	4.12
315.353	4.12
315.722	4.12
316.091	4.12
316.46	4.08
316.829	4.07
317.198	4.07
317.567	4.06
317.935	4.07
318.304	4.06
318.672	4.06
319.041	4.08
319.41	4.08
319.778	4.08
320.147	4.07
320.515	4.05
320.883	4.04
321.252	4.01
321.62	4.02
321.988	4.01
322.357	4.01
322.725	4.01
323.093	4.01
323.461	4
323.829	4.02
324.197	4.02
324.565	4.01
324.933	4.03
325.301	4.04
325.669	4.05
326.037	4.04
326.405	4.05
326.772	4.06
327.14	4.07
327.508	4.05
327.875	4.03
328.243	4.02
328.61	4.02
328.978	4.01
329.346	4
329.713	4
330.08	4
330.448	3.99
330.815	3.98
331.182	3.97
331.55	3.98
331.917	3.98
332.284	3.97
332.651	3.96
333.018	3.96
333.385	3.97
333.752	3.96
334.119	3.96
334.486	3.96
334.853	3.96
335.22	3.96
335.587	3.97
335.954	3.98
336.32	3.99
336.687	3.98
337.054	3.98
337.42	3.99
337.787	4
338.153	3.99
338.52	3.99
338.886	3.98
339.253	3.98
339.619	3.99
339.986	3.99
340.352	4
340.718	3.99
341.084	3.99
341.451	3.99
341.817	3.98
342.183	4
342.549	4.01
342.915	4.01
343.281	4.01
343.647	4.02
344.013	4.01
344.379	4
344.745	4.01
345.11	4
345.476	4.02
345.842	4.02
346.208	4.02
346.573	4
346.939	4.01
347.304	4.03
347.67	4.03
348.035	4.03
348.401	4.02
348.766	4.04
349.132	4.04
349.497	4.04
349.862	4.03
350.228	4.05
350.593	4.05
350.958	4.05
351.323	4.04
351.688	4.06
352.053	4.05
352.418	4.05
352.783	4.05
353.148	4.05
353.513	4.05
353.878	4.06
354.243	4.06
354.608	4.06
354.972	4.06
355.337	4.06
355.702	4.06
356.066	4.06
356.431	4.06
356.795	4.07
357.16	4.05
357.524	4.05
357.889	4.06
358.253	4.06
358.618	4.06
358.982	4.06
359.346	4.07
359.71	4.07
360.075	4.07
360.439	4.06
360.803	4.07
361.167	4.06
361.531	4.07
361.895	4.07
362.259	4.06
362.623	4.05
362.987	4.05
363.351	4.06
363.714	4.05
364.078	4.05
364.442	4.05
364.806	4.06
365.169	4.05
365.533	4.05
365.896	4.05
366.26	4.05
366.623	4.05
366.987	4.05
367.35	4.04
367.714	4.05
368.077	4.04
368.44	4.05
368.803	4.04
369.167	4.04
369.53	4.04
369.893	4.04
370.256	4.04
370.619	4.04
370.982	4.04
371.345	4.04
371.708	4.04
372.071	4.05
372.434	4.06
372.797	4.06
373.159	4.05
373.522	4.05
373.885	4.05
374.247	4.05
374.61	4.05
374.973	4.04
375.335	4.05
375.698	4.04
376.06	4.05
376.423	4.05
376.785	4.06
377.147	4.06
377.51	4.06
377.872	4.07
378.234	4.06
378.596	4.06
378.958	4.06
379.321	4.06
379.683	4.06
380.045	4.06
380.407	4.07
380.769	4.07
381.13	4.07
381.492	4.06
381.854	4.07
382.216	4.07
382.578	4.07
382.939	4.08
383.301	4.08
383.663	4.08
384.024	4.08
384.386	4.08
384.747	4.08
385.109	4.09
385.47	4.09
385.832	4.08
386.193	4.09
386.554	4.08
386.916	4.08
387.277	4.08
387.638	4.08
387.999	4.08
388.36	4.08
388.721	4.08
389.082	4.09
389.443	4.09
389.804	4.09
390.165	4.09
390.526	4.09
390.887	4.09
391.248	4.09
391.609	4.09
391.969	4.1
392.33	4.1
392.691	4.1
393.051	4.11
393.412	4.11
393.772	4.11
394.133	4.11
394.493	4.11
394.854	4.11
395.214	4.11
395.574	4.11
395.935	4.11
396.295	4.11
396.655	4.11
397.015	4.11
397.376	4.11
397.736	4.11
398.096	4.11
398.456	4.11
398.816	4.12
399.176	4.12
399.535	4.12
399.895	4.12
400.255	4.12
400.615	4.13
400.975	4.13
401.334	4.13
401.694	4.14
402.054	4.14
402.413	4.14
402.773	4.14
403.132	4.14
403.492	4.14
403.851	4.15
404.211	4.15
404.57	4.15
404.929	4.15
405.288	4.16
405.648	4.16
406.007	4.17
406.366	4.16
406.725	4.16
407.084	4.16
407.443	4.17
407.802	4.17
408.161	4.17
408.52	4.17
408.879	4.18
409.238	4.18
409.596	4.19
409.955	4.19
410.314	4.18
410.673	4.19
411.031	4.2
411.39	4.21
411.748	4.22
412.107	4.23
412.465	4.24
412.824	4.26
413.182	4.29
413.54	4.31
413.899	4.34
414.257	4.38
414.615	4.42
414.974	4.45
415.332	4.5
415.69	4.54
416.048	4.57
416.406	4.61
416.764	4.64
417.122	4.68
417.48	4.71
417.838	4.74
418.195	4.77
418.553	4.8
418.911	4.81
419.269	4.83
419.626	4.82
419.984	4.82
420.342	4.8
420.699	4.79
421.057	4.77
421.414	4.76
421.772	4.75
422.129	4.74
422.486	4.74
422.844	4.74
423.201	4.74
423.558	4.73
423.915	4.73
424.273	4.74
424.63	4.74
424.987	4.74
425.344	4.74
425.701	4.74
426.058	4.74
426.415	4.75
426.772	4.75
427.128	4.75
427.485	4.74
427.842	4.73
428.199	4.72
428.555	4.7
428.912	4.68
429.269	4.65
429.625	4.63
429.982	4.6
430.338	4.57
430.695	4.55
431.051	4.52
431.407	4.5
431.764	4.48
432.12	4.46
432.476	4.44
432.832	4.43
433.189	4.43
433.545	4.44
433.901	4.45
434.257	4.48
434.613	4.5
434.969	4.53
435.325	4.56
435.681	4.6
436.036	4.62
436.392	4.65
436.748	4.66
437.104	4.66
437.459	4.69
437.815	4.7
438.171	4.73
438.526	4.75
438.882	4.79
439.237	4.83
439.593	4.86
439.948	4.9
440.304	4.94
440.659	4.96
441.014	4.98
441.369	5.01
441.725	5.03
442.08	5.06
442.435	5.07
442.79	5.08
443.145	5.08
443.5	5.08
443.855	5.08
444.21	5.08
444.565	5.08
444.92	5.07
445.275	5.06
445.629	5.05
445.984	5.04
446.339	5.03
446.693	5.02
447.048	5
447.403	4.99
447.757	4.97
448.112	4.95
448.466	4.92
448.82	4.9
449.175	4.88
449.529	4.86
449.883	4.85
450.238	4.83
450.592	4.82
450.946	4.81
451.3	4.81
451.654	4.82
452.008	4.83
452.362	4.84
452.716	4.84
453.07	4.84
453.424	4.84
453.778	4.83
454.132	4.82
454.486	4.81
454.839	4.79
455.193	4.78
455.547	4.76
455.9	4.73
456.254	4.72
456.607	4.68
456.961	4.65
457.314	4.63
457.668	4.62
458.021	4.62
458.375	4.62
458.728	4.62
459.081	4.62
459.434	4.64
459.787	4.65
460.141	4.66
460.494	4.67
460.847	4.68
461.2	4.69
461.553	4.69
461.906	4.7
462.259	4.7
462.611	4.71
462.964	4.71
463.317	4.72
463.67	4.73
464.022	4.73
464.375	4.74
464.728	4.74
465.08	4.74
465.433	4.75
465.785	4.75
466.138	4.73
466.49	4.71
466.843	4.69
467.195	4.67
467.547	4.64
467.899	4.62
468.252	4.59
468.604	4.56
468.956	4.54
469.308	4.52
469.66	4.52
470.012	4.51
470.364	4.51
470.716	4.52
471.068	4.54
471.42	4.56
471.772	4.58
472.123	4.59
472.475	4.6
472.827	4.61
473.178	4.62
473.53	4.63
473.882	4.64
474.233	4.66
474.585	4.7
474.936	4.77
475.288	4.87
475.639	4.99
475.99	5.14
476.342	5.3
476.693	5.48
477.044	5.66
477.395	5.85
477.746	6.04
478.097	6.24
478.448	6.43
478.8	6.62
479.15	6.8
479.501	6.96
479.852	7.11
480.203	7.25
480.554	7.39
480.905	7.53
481.255	7.65
481.606	7.77
481.957	7.88
482.307	7.99
482.658	8.09
483.009	8.19
483.359	8.28
483.709	8.38
484.06	8.46
484.41	8.55
484.761	8.63
485.111	8.71
485.461	8.79
485.811	8.86
486.162	8.92
486.512	8.97
486.862	9.02
487.212	9.05
487.562	9.07
487.912	9.08
488.262	9.09
488.612	9.08
488.961	9.06
489.311	9.02
489.661	8.94
490.011	8.85
490.36	8.73
490.71	8.6
491.06	8.45
491.409	8.3
491.759	8.13
492.108	7.96
492.458	7.78
492.807	7.6
493.157	7.41
493.506	7.24
493.855	7.07
494.204	6.91
494.554	6.76
494.903	6.63
495.252	6.49
495.601	6.37
495.95	6.24
496.299	6.13
496.648	6.02
496.997	5.92
497.346	5.81
497.695	5.71
498.043	5.62
498.392	5.52
498.741	5.43
499.09	5.35
499.438	5.27
499.787	5.19
500.135	5.12
500.484	5.05
500.832	5
501.181	4.95
501.529	4.92
501.878	4.91
502.226	4.89
502.574	4.89
502.923	4.88
503.271	4.88
503.619	4.88
503.967	4.88
504.315	4.87
504.663	4.87
505.011	4.86
505.359	4.86
505.707	4.85
506.055	4.85
506.403	4.85
506.751	4.85
507.098	4.86
507.446	4.86
507.794	4.87
508.141	4.89
508.489	4.91
508.837	4.92
509.184	4.93
509.531	4.95
509.879	4.95
510.226	4.97
510.574	4.98
510.921	5
511.268	5.02
511.616	5.04
511.963	5.06
512.31	5.08
512.657	5.1
513.004	5.12
513.351	5.14
513.698	5.15
514.045	5.16
514.392	5.16
514.739	5.16
515.086	5.15
515.432	5.15
515.779	5.14
516.126	5.14
516.473	5.14
516.819	5.14
517.166	5.15
517.512	5.16
517.859	5.17
518.205	5.19
518.552	5.21
518.898	5.25
519.245	5.29
519.591	5.35
519.937	5.43
520.283	5.53
520.629	5.64
520.976	5.76
521.322	5.89
521.668	6.02
522.014	6.15
522.36	6.29
522.706	6.41
523.052	6.54
523.398	6.65
523.743	6.76
524.089	6.85
524.435	6.93
524.781	7
525.126	7.07
525.472	7.13
525.817	7.19
526.163	7.25
526.509	7.3
526.854	7.35
527.199	7.4
527.545	7.45
527.89	7.51
528.235	7.56
528.581	7.61
528.926	7.66
529.271	7.71
529.616	7.75
529.961	7.79
530.306	7.82
530.651	7.84
530.996	7.86
531.341	7.87
531.686	7.88
532.031	7.88
532.376	7.89
532.721	7.89
533.065	7.9
533.41	7.91
533.755	7.9
534.099	7.89
534.444	7.86
534.788	7.82
535.133	7.78
535.477	7.73
535.822	7.67
536.166	7.61
536.51	7.53
536.855	7.45
537.199	7.36
537.543	7.28
537.887	7.2
538.231	7.13
538.576	7.07
538.92	7.01
539.264	6.94
539.608	6.87
539.951	6.8
540.295	6.73
540.639	6.66
540.983	6.59
541.327	6.51
541.671	6.44
542.014	6.38
542.358	6.31
542.701	6.27
543.045	6.24
543.389	6.21
543.732	6.19
544.075	6.17
544.419	6.15
544.762	6.13
545.105	6.12
545.449	6.11
545.792	6.1
546.135	6.09
546.478	6.07
546.821	6.05
547.165	6.02
547.508	5.97
547.851	5.92
548.194	5.86
548.536	5.8
548.879	5.72
549.222	5.65
549.565	5.57
549.908	5.5
550.25	5.42
550.593	5.35
550.936	5.31
551.278	5.26
551.621	5.23
551.963	5.19
552.306	5.16
552.648	5.14
552.991	5.13
553.333	5.11
553.675	5.11
554.017	5.1
554.36	5.11
554.702	5.11
555.044	5.13
555.386	5.14
555.728	5.16
556.07	5.17
556.412	5.19
556.754	5.19
557.096	5.19
557.438	5.19
557.78	5.19
558.121	5.19
558.463	5.19
558.805	5.19
559.147	5.19
559.488	5.2
559.83	5.2
560.171	5.21
560.513	5.21
560.854	5.21
561.196	5.21
561.537	5.21
561.878	5.22
562.22	5.22
562.561	5.22
562.902	5.22
563.243	5.22
563.584	5.22
563.925	5.22
564.266	5.22
564.607	5.23
564.948	5.23
565.289	5.22
565.63	5.23
565.971	5.24
566.312	5.24
566.653	5.24
566.993	5.24
567.334	5.25
567.675	5.25
568.015	5.26
568.356	5.27
568.696	5.27
569.037	5.27
569.377	5.27
569.718	5.28
570.058	5.28
570.398	5.28
570.739	5.28
571.079	5.28
571.419	5.28
571.759	5.28
572.099	5.29
572.439	5.29
572.779	5.29
573.119	5.29
573.459	5.29
573.799	5.29
574.139	5.29
574.479	5.29
574.819	5.29
575.158	5.29
575.498	5.29
575.838	5.29
576.177	5.29
576.517	5.29
576.856	5.29
577.196	5.29
577.535	5.29
577.875	5.29
578.214	5.29
578.553	5.29
578.893	5.29
579.232	5.29
579.571	5.29
579.91	5.29
580.25	5.29
580.589	5.28
580.928	5.28
581.267	5.28
581.606	5.28
581.945	5.28
582.283	5.28
582.622	5.28
582.961	5.28
583.3	5.28
583.639	5.28
583.977	5.28
584.316	5.28
584.654	5.28
584.993	5.28
585.332	5.29
585.67	5.29
586.008	5.29
586.347	5.3
586.685	5.3
587.024	5.3
587.362	5.31
587.7	5.31
588.038	5.31
588.376	5.31
588.715	5.31
589.053	5.32
589.391	5.32
589.729	5.33
590.067	5.33
590.404	5.34
590.742	5.34
591.08	5.35
591.418	5.35
591.756	5.35
592.093	5.36
592.431	5.36
592.769	5.37
593.106	5.37
593.444	5.38
593.781	5.38
594.119	5.38
594.456	5.38
594.793	5.39
595.131	5.39
595.468	5.39
595.805	5.39
596.143	5.39
596.48	5.39
596.817	5.39
597.154	5.39
597.491	5.4
597.828	5.41
598.165	5.41
598.502	5.41
598.839	5.42
599.176	5.42
599.512	5.42
599.849	5.42
600.186	5.42
600.523	5.43
600.859	5.43
601.196	5.43
601.532	5.43
601.869	5.43
602.205	5.44
602.542	5.44
602.878	5.44
603.215	5.45
603.551	5.45
603.887	5.45
604.223	5.45
604.56	5.45
604.896	5.45
605.232	5.46
605.568	5.46
605.904	5.46
606.24	5.46
606.576	5.46
606.912	5.46
607.248	5.45
607.583	5.45
607.919	5.45
608.255	5.46
608.591	5.46
608.926	5.46
609.262	5.47
609.597	5.47
609.933	5.47
610.268	5.48
610.604	5.48
610.939	5.48
611.275	5.48
611.61	5.48
611.945	5.49
612.281	5.48
612.616	5.49
612.951	5.48
613.286	5.48
613.621	5.48
613.956	5.48
614.291	5.48
614.626	5.48
614.961	5.48
615.296	5.48
615.631	5.49
615.966	5.49
616.3	5.5
616.635	5.49
616.97	5.5
617.304	5.5
617.639	5.5
617.973	5.5
618.308	5.5
618.642	5.5
618.977	5.5
619.311	5.5
619.646	5.5
619.98	5.5
620.314	5.51
620.648	5.52
620.983	5.53
621.317	5.53
621.651	5.53
621.985	5.54
622.319	5.54
622.653	5.55
622.987	5.55
623.321	5.55
623.655	5.56
623.988	5.55
624.322	5.56
624.656	5.56
624.99	5.57
625.323	5.57
625.657	5.57
625.99	5.57
626.324	5.57
626.657	5.58
626.991	5.58
627.324	5.58
627.658	5.58
627.991	5.58
628.324	5.58
628.657	5.59
628.991	5.59
629.324	5.6
629.657	5.6
629.99	5.59
630.323	5.6
630.656	5.6
630.989	5.61
631.322	5.61
631.655	5.62
631.987	5.62
632.32	5.62
632.653	5.63
632.986	5.64
633.318	5.64
633.651	5.64
633.984	5.63
634.316	5.63
634.649	5.63
634.981	5.63
635.313	5.64
635.646	5.64
635.978	5.64
636.31	5.65
636.643	5.65
636.975	5.66
637.307	5.66
637.639	5.66
637.971	5.66
638.303	5.66
638.635	5.66
638.967	5.65
639.299	5.66
639.631	5.66
639.963	5.68
640.295	5.68
640.626	5.68
640.958	5.69
641.29	5.7
641.621	5.71
641.953	5.72
642.285	5.71
642.616	5.72
642.948	5.72
643.279	5.72
643.61	5.73
643.942	5.73
644.273	5.74
644.604	5.74
644.936	5.75
645.267	5.75
645.598	5.75
645.929	5.75
646.26	5.74
646.591	5.75
646.922	5.75
647.253	5.76
647.584	5.77
647.915	5.77
648.245	5.77
648.576	5.79
648.907	5.8
649.238	5.8
649.568	5.8
649.899	5.8
650.229	5.8
650.56	5.8
650.89	5.8
651.221	5.8
651.551	5.81
651.882	5.82
652.212	5.82
652.542	5.83
652.872	5.83
653.203	5.84
653.533	5.83
653.863	5.83
654.193	5.83
654.523	5.83
654.853	5.83
655.183	5.84
655.513	5.84
655.843	5.85
656.172	5.85
656.502	5.87
656.832	5.86
657.162	5.86
657.491	5.87
657.821	5.88
658.15	5.88
658.48	5.88
658.809	5.88
659.139	5.88
659.468	5.88
659.798	5.89
660.127	5.89
660.456	5.9
660.785	5.91
661.115	5.91
661.444	5.92
661.773	5.93
662.102	5.92
662.431	5.92
662.76	5.92
663.089	5.92
663.418	5.93
663.747	5.94
664.076	5.94
664.404	5.94
664.733	5.95
665.062	5.95
665.39	5.96
665.719	5.96
666.048	5.97
666.376	5.97
666.705	5.97
667.033	5.98
667.362	5.99
667.69	6
668.018	6
668.347	6.01
668.675	6.01
669.003	6.03
669.331	6.03
669.659	6.03
669.987	6.02
670.315	6.03
670.643	6.04
670.971	6.04
671.299	6.04
671.627	6.04
671.955	6.04
672.283	6.05
672.61	6.06
672.938	6.07
673.266	6.07
673.593	6.07
673.921	6.06
674.249	6.07
674.576	6.08
674.904	6.08
675.231	6.09
675.558	6.1
675.886	6.1
676.213	6.11
676.54	6.11
676.867	6.1
677.195	6.11
677.522	6.11
677.849	6.12
678.176	6.11
678.503	6.12
678.83	6.13
679.157	6.14
679.484	6.15
679.81	6.15
680.137	6.15
680.464	6.17
680.791	6.17
