Data from UWBM122617_Reflection_00011.txt Node
Date: Sun May 02 12:18:03 EDT 2021
User: vgr7
Spectrometer: USB2G7710
Scans to average: 10
Trigger mode: 4
Integration Time (sec): 1.000000E-1
Electric dark correction enabled: true
Boxcar width: 10
XAxis mode: Wavelengths
Number of Pixels in Spectrum: 2048
>>>>>Begin Spectral Data<<<<<
177.721	-605
178.105	72.73
178.488	0.24
178.871	62.03
179.254	-101.92
179.636	110.91
180.019	53.13
180.402	80
180.785	-13.1
181.168	-41.69
181.55	-15.3
181.933	-37.66
182.316	-34.67
182.698	-134.51
183.081	-65.98
183.463	-119.64
183.846	-40.41
184.228	-62.93
184.611	-49.12
184.993	-31.17
185.376	-33.66
185.758	-40.59
186.14	-34.84
186.522	-28.54
186.904	-31.73
187.287	-29.03
187.669	-26.57
188.051	-33.97
188.433	-28.03
188.815	-23.02
189.197	-19.47
189.579	-19.63
189.961	-16.43
190.342	-19.69
190.724	-14.24
191.106	-17.34
191.488	-12.28
191.869	-19.06
192.251	-17.04
192.633	-15.38
193.014	-14.39
193.396	-10.26
193.777	-3.96
194.159	-6.87
194.54	-11.09
194.922	-12.39
195.303	-8.4
195.684	-6.7
196.065	-5.15
196.447	-3.97
196.828	-6.1
197.209	-6.7
197.59	-9.4
197.971	-10.47
198.352	-8.15
198.733	-3.07
199.114	-2.15
199.495	-2.56
199.876	1.32
200.257	3.2
200.638	4.36
201.018	4.09
201.399	1.51
201.78	-1.81
202.16	-2.37
202.541	-1.41
202.922	1.66
203.302	-5.25
203.683	-3.71
204.063	-4.16
204.444	-5.08
204.824	-2.75
205.204	-4.81
205.585	-4.02
205.965	-4.27
206.345	-1.06
206.725	-8.86
207.106	-7.78
207.486	-9.07
207.866	-6.56
208.246	-8.27
208.626	-6.87
209.006	-8
209.386	-8.49
209.766	-12.05
210.145	-12.8
210.525	-9.6
210.905	-8.84
211.285	-3.53
211.664	-2.81
212.044	-0.3
212.424	5.87
212.803	2.42
213.183	7.22
213.562	7.9
213.942	6.32
214.321	2.16
214.701	0.5
215.08	1.12
215.459	1.27
215.838	-2.38
216.218	-1.88
216.597	-3.66
216.976	-2.87
217.355	-1.12
217.734	4
218.113	5.2
218.492	4.92
218.871	5.18
219.25	2.77
219.629	1.68
220.008	3.14
220.387	-6.25
220.766	-10.91
221.144	-13.77
221.523	-10.5
221.902	-8.06
222.28	-7.42
222.659	-6.41
223.037	-4.27
223.416	-1.38
223.794	0.64
224.173	2.82
224.551	2.98
224.929	0.54
225.308	1.16
225.686	0.19
226.064	0.34
226.442	-0.29
226.821	0.45
227.199	0.56
227.577	0.08
227.955	-0.37
228.333	2.05
228.711	3.77
229.089	4.64
229.467	3.46
229.845	3.46
230.222	3.88
230.6	5.14
230.978	5.25
231.356	4.71
231.733	4.92
232.111	4.44
232.488	4.33
232.866	4.33
233.243	3.93
233.621	4.32
233.998	4.29
234.376	4.82
234.753	5.39
235.13	5.48
235.508	6.37
235.885	6.28
236.262	6.15
236.639	6.73
237.016	6.73
237.393	7.08
237.77	6.92
238.147	6.81
238.524	6.66
238.901	6.64
239.278	6.43
239.655	6.36
240.032	6.48
240.409	6.45
240.785	6.34
241.162	6.38
241.539	6.29
241.915	6.36
242.292	6.36
242.668	6.24
243.045	6.24
243.421	6.06
243.798	6.01
244.174	5.97
244.551	5.81
244.927	5.76
245.303	5.6
245.679	5.67
246.056	5.62
246.432	5.63
246.808	5.52
247.184	5.56
247.56	5.49
247.936	5.49
248.312	5.47
248.688	5.55
249.064	5.57
249.44	5.57
249.815	5.51
250.191	5.42
250.567	5.35
250.943	5.39
251.318	5.36
251.694	5.3
252.069	5.15
252.445	5.18
252.82	5.16
253.196	5.22
253.571	5.15
253.947	5.32
254.322	5.28
254.697	5.36
255.073	5.3
255.448	5.33
255.823	5.22
256.198	5.19
256.573	5.09
256.948	5
257.323	5.01
257.698	4.98
258.073	5
258.448	5.03
258.823	4.99
259.198	4.99
259.573	5.01
259.948	5.08
260.322	5.08
260.697	5.05
261.072	5.05
261.446	5.05
261.821	5
262.195	4.96
262.57	4.94
262.944	4.95
263.319	4.96
263.693	4.99
264.067	4.96
264.442	4.94
264.816	4.96
265.19	4.96
265.564	5.01
265.938	4.94
266.313	4.91
266.687	4.8
267.061	4.84
267.435	4.87
267.809	4.86
268.183	4.87
268.556	4.91
268.93	4.92
269.304	4.89
269.678	4.82
270.051	4.8
270.425	4.75
270.799	4.76
271.172	4.75
271.546	4.75
271.919	4.8
272.293	4.8
272.666	4.76
273.04	4.72
273.413	4.65
273.787	4.7
274.16	4.73
274.533	4.83
274.906	4.78
275.279	4.82
275.653	4.76
276.026	4.73
276.399	4.67
276.772	4.68
277.145	4.71
277.518	4.76
277.891	4.78
278.263	4.8
278.636	4.79
279.009	4.8
279.382	4.74
279.755	4.71
280.127	4.77
280.5	4.79
280.872	4.79
281.245	4.87
281.617	4.84
281.99	4.79
282.362	4.77
282.735	4.78
283.107	4.73
283.479	4.8
283.852	4.8
284.224	4.83
284.596	4.82
284.968	4.79
285.34	4.76
285.713	4.82
286.085	4.81
286.457	4.83
286.829	4.8
287.201	4.82
287.572	4.82
287.944	4.84
288.316	4.88
288.688	4.92
289.06	4.91
289.431	4.91
289.803	4.93
290.175	4.95
290.546	4.96
290.918	4.99
291.289	4.99
291.661	5.03
292.032	5.04
292.403	5.11
292.775	5.15
293.146	5.21
293.517	5.24
293.889	5.28
294.26	5.28
294.631	5.36
295.002	5.43
295.373	5.49
295.744	5.49
296.115	5.51
296.486	5.51
296.857	5.54
297.228	5.61
297.599	5.67
297.97	5.69
298.34	5.74
298.711	5.76
299.082	5.79
299.452	5.79
299.823	5.81
300.194	5.8
300.564	5.83
300.935	5.85
301.305	5.86
301.676	5.89
302.046	5.92
302.416	5.95
302.787	6
303.157	6.05
303.527	6.14
303.897	6.19
304.267	6.24
304.637	6.29
305.008	6.32
305.378	6.36
305.748	6.39
306.117	6.46
306.487	6.5
306.857	6.54
307.227	6.62
307.597	6.7
307.967	6.78
308.336	6.85
308.706	6.94
309.076	6.97
309.445	7.06
309.815	7.11
310.184	7.16
310.554	7.19
310.923	7.24
311.293	7.28
311.662	7.34
312.031	7.37
312.401	7.43
312.77	7.48
313.139	7.51
313.508	7.58
313.877	7.65
314.246	7.69
314.616	7.78
314.985	7.8
315.353	7.83
315.722	7.87
316.091	7.93
316.46	7.96
316.829	8.07
317.198	8.11
317.567	8.18
317.935	8.27
318.304	8.33
318.672	8.38
319.041	8.43
319.41	8.47
319.778	8.58
320.147	8.66
320.515	8.7
320.883	8.76
321.252	8.81
321.62	8.86
321.988	8.92
322.357	8.96
322.725	9.04
323.093	9.13
323.461	9.21
323.829	9.26
324.197	9.32
324.565	9.36
324.933	9.41
325.301	9.46
325.669	9.49
326.037	9.55
326.405	9.57
326.772	9.59
327.14	9.58
327.508	9.61
327.875	9.65
328.243	9.7
328.61	9.76
328.978	9.81
329.346	9.78
329.713	9.83
330.08	9.88
330.448	9.89
330.815	9.87
331.182	9.87
331.55	9.91
331.917	9.94
332.284	9.95
332.651	9.99
333.018	10.01
333.385	10
333.752	10.02
334.119	10.06
334.486	10.07
334.853	10.14
335.22	10.13
335.587	10.13
335.954	10.14
336.32	10.12
336.687	10.16
337.054	10.21
337.42	10.25
337.787	10.24
338.153	10.3
338.52	10.34
338.886	10.37
339.253	10.35
339.619	10.38
339.986	10.39
340.352	10.4
340.718	10.46
341.084	10.46
341.451	10.49
341.817	10.52
342.183	10.57
342.549	10.59
342.915	10.61
343.281	10.67
343.647	10.73
344.013	10.75
344.379	10.77
344.745	10.75
345.11	10.74
345.476	10.76
345.842	10.79
346.208	10.79
346.573	10.79
346.939	10.85
347.304	10.85
347.67	10.86
348.035	10.87
348.401	10.85
348.766	10.88
349.132	10.88
349.497	10.91
349.862	10.9
350.228	10.91
350.593	10.92
350.958	10.88
351.323	10.88
351.688	10.9
352.053	10.89
352.418	10.93
352.783	10.92
353.148	10.91
353.513	10.9
353.878	10.92
354.243	10.93
354.608	10.88
354.972	10.89
355.337	10.87
355.702	10.86
356.066	10.87
356.431	10.82
356.795	10.81
357.16	10.77
357.524	10.77
357.889	10.74
358.253	10.71
358.618	10.7
358.982	10.68
359.346	10.65
359.71	10.62
360.075	10.58
360.439	10.58
360.803	10.57
361.167	10.56
361.531	10.52
361.895	10.5
362.259	10.49
362.623	10.46
362.987	10.45
363.351	10.43
363.714	10.42
364.078	10.4
364.442	10.37
364.806	10.36
365.169	10.34
365.533	10.3
365.896	10.29
366.26	10.26
366.623	10.23
366.987	10.19
367.35	10.17
367.714	10.13
368.077	10.09
368.44	10.04
368.803	9.98
369.167	9.94
369.53	9.9
369.893	9.84
370.256	9.8
370.619	9.74
370.982	9.68
371.345	9.61
371.708	9.57
372.071	9.49
372.434	9.42
372.797	9.34
373.159	9.31
373.522	9.25
373.885	9.19
374.247	9.12
374.61	9.06
374.973	8.99
375.335	8.91
375.698	8.86
376.06	8.82
376.423	8.75
376.785	8.7
377.147	8.64
377.51	8.6
377.872	8.52
378.234	8.47
378.596	8.41
378.958	8.36
379.321	8.3
379.683	8.27
380.045	8.2
380.407	8.14
380.769	8.08
381.13	8.01
381.492	7.94
381.854	7.89
382.216	7.87
382.578	7.83
382.939	7.82
383.301	7.77
383.663	7.71
384.024	7.66
384.386	7.62
384.747	7.57
385.109	7.53
385.47	7.49
385.832	7.46
386.193	7.43
386.554	7.38
386.916	7.36
387.277	7.32
387.638	7.3
387.999	7.26
388.36	7.22
388.721	7.19
389.082	7.18
389.443	7.14
389.804	7.08
390.165	7.04
390.526	6.99
390.887	6.95
391.248	6.92
391.609	6.89
391.969	6.85
392.33	6.82
392.691	6.79
393.051	6.74
393.412	6.7
393.772	6.66
394.133	6.63
394.493	6.58
394.854	6.55
395.214	6.49
395.574	6.46
395.935	6.43
396.295	6.38
396.655	6.33
397.015	6.3
397.376	6.26
397.736	6.22
398.096	6.17
398.456	6.13
398.816	6.09
399.176	6.05
399.535	6.02
399.895	5.99
400.255	5.96
400.615	5.92
400.975	5.9
401.334	5.87
401.694	5.84
402.054	5.81
402.413	5.78
402.773	5.77
403.132	5.75
403.492	5.73
403.851	5.7
404.211	5.68
404.57	5.66
404.929	5.65
405.288	5.63
405.648	5.62
406.007	5.6
406.366	5.6
406.725	5.58
407.084	5.55
407.443	5.53
407.802	5.52
408.161	5.52
408.52	5.51
408.879	5.5
409.238	5.49
409.596	5.49
409.955	5.47
410.314	5.45
410.673	5.43
411.031	5.42
411.39	5.41
411.748	5.41
412.107	5.41
412.465	5.4
412.824	5.39
413.182	5.38
413.54	5.38
413.899	5.36
414.257	5.36
414.615	5.35
414.974	5.33
415.332	5.32
415.69	5.3
416.048	5.28
416.406	5.27
416.764	5.26
417.122	5.25
417.48	5.25
417.838	5.24
418.195	5.23
418.553	5.22
418.911	5.22
419.269	5.21
419.626	5.2
419.984	5.2
420.342	5.19
420.699	5.18
421.057	5.17
421.414	5.16
421.772	5.15
422.129	5.15
422.486	5.14
422.844	5.13
423.201	5.12
423.558	5.12
423.915	5.1
424.273	5.09
424.63	5.08
424.987	5.07
425.344	5.06
425.701	5.05
426.058	5.04
426.415	5.03
426.772	5
427.128	4.98
427.485	4.96
427.842	4.95
428.199	4.93
428.555	4.92
428.912	4.91
429.269	4.89
429.625	4.88
429.982	4.87
430.338	4.86
430.695	4.85
431.051	4.84
431.407	4.84
431.764	4.85
432.12	4.83
432.476	4.84
432.832	4.83
433.189	4.83
433.545	4.83
433.901	4.83
434.257	4.84
434.613	4.85
434.969	4.85
435.325	4.86
435.681	4.87
436.036	4.88
436.392	4.89
436.748	4.9
437.104	4.91
437.459	4.91
437.815	4.92
438.171	4.93
438.526	4.94
438.882	4.95
439.237	4.95
439.593	4.96
439.948	4.96
440.304	4.98
440.659	4.98
441.014	4.98
441.369	4.98
441.725	4.97
442.08	4.98
442.435	4.99
442.79	4.99
443.145	4.99
443.5	4.98
443.855	4.98
444.21	4.98
444.565	4.97
444.92	4.96
445.275	4.96
445.629	4.95
445.984	4.94
446.339	4.93
446.693	4.93
447.048	4.91
447.403	4.91
447.757	4.89
448.112	4.88
448.466	4.88
448.82	4.87
449.175	4.87
449.529	4.85
449.883	4.84
450.238	4.82
450.592	4.8
450.946	4.79
451.3	4.77
451.654	4.76
452.008	4.75
452.362	4.74
452.716	4.73
453.07	4.72
453.424	4.71
453.778	4.71
454.132	4.7
454.486	4.7
454.839	4.7
455.193	4.7
455.547	4.7
455.9	4.71
456.254	4.71
456.607	4.72
456.961	4.73
457.314	4.74
457.668	4.74
458.021	4.75
458.375	4.76
458.728	4.76
459.081	4.77
459.434	4.79
459.787	4.79
460.141	4.8
460.494	4.8
460.847	4.8
461.2	4.8
461.553	4.81
461.906	4.81
462.259	4.82
462.611	4.83
462.964	4.84
463.317	4.84
463.67	4.85
464.022	4.85
464.375	4.86
464.728	4.86
465.08	4.87
465.433	4.89
465.785	4.89
466.138	4.9
466.49	4.9
466.843	4.9
467.195	4.92
467.547	4.92
467.899	4.94
468.252	4.96
468.604	4.97
468.956	4.99
469.308	5
469.66	5
470.012	5.01
470.364	5.01
470.716	5.02
471.068	5.03
471.42	5.05
471.772	5.05
472.123	5.07
472.475	5.08
472.827	5.08
473.178	5.09
473.53	5.09
473.882	5.1
474.233	5.11
474.585	5.11
474.936	5.12
475.288	5.12
475.639	5.12
475.99	5.12
476.342	5.12
476.693	5.13
477.044	5.13
477.395	5.13
477.746	5.12
478.097	5.13
478.448	5.15
478.8	5.23
479.15	5.36
479.501	5.51
479.852	5.69
480.203	5.88
480.554	6.07
480.905	6.28
481.255	6.48
481.606	6.67
481.957	6.86
482.307	7.05
482.658	7.21
483.009	7.36
483.359	7.48
483.709	7.59
484.06	7.69
484.41	7.79
484.761	7.88
485.111	7.97
485.461	8.06
485.811	8.14
486.162	8.16
486.512	8.15
486.862	8.11
487.212	8.04
487.562	7.95
487.912	7.85
488.262	7.73
488.612	7.6
488.961	7.46
489.311	7.31
489.661	7.15
490.011	6.99
490.36	6.82
490.71	6.65
491.06	6.48
491.409	6.31
491.759	6.17
492.108	6.06
492.458	5.96
492.807	5.88
493.157	5.8
493.506	5.73
493.855	5.65
494.204	5.58
494.554	5.52
494.903	5.46
495.252	5.41
495.601	5.36
495.95	5.32
496.299	5.29
496.648	5.26
496.997	5.25
497.346	5.26
497.695	5.3
498.043	5.36
498.392	5.45
498.741	5.56
499.09	5.64
499.438	5.7
499.787	5.75
500.135	5.8
500.484	5.86
500.832	5.93
501.181	5.99
501.529	6.06
501.878	6.13
502.226	6.2
502.574	6.28
502.923	6.38
503.271	6.46
503.619	6.56
503.967	6.67
504.315	6.78
504.663	6.89
505.011	7
505.359	7.12
505.707	7.24
506.055	7.36
506.403	7.49
506.751	7.62
507.098	7.76
507.446	7.9
507.794	8.02
508.141	8.16
508.489	8.31
508.837	8.45
509.184	8.61
509.531	8.76
509.879	8.9
510.226	9.05
510.574	9.2
510.921	9.35
511.268	9.51
511.616	9.67
511.963	9.84
512.31	10.01
512.657	10.19
513.004	10.39
513.351	10.59
513.698	10.8
514.045	11.01
514.392	11.24
514.739	11.47
515.086	11.71
515.432	11.94
515.779	12.18
516.126	12.4
516.473	12.62
516.819	12.83
517.166	13.05
517.512	13.26
517.859	13.47
518.205	13.67
518.552	13.86
518.898	14.05
519.245	14.23
519.591	14.43
519.937	14.63
520.283	14.85
520.629	15.05
520.976	15.26
521.322	15.5
521.668	15.73
522.014	15.97
522.36	16.21
522.706	16.47
523.052	16.81
523.398	17.26
523.743	17.84
524.089	18.48
524.435	19.17
524.781	19.86
525.126	20.56
525.472	21.25
525.817	21.92
526.163	22.55
526.509	23.15
526.854	23.65
527.199	24.08
527.545	24.42
527.89	24.72
528.235	25.02
528.581	25.3
528.926	25.58
529.271	25.85
529.616	26.14
529.961	26.39
530.306	26.62
530.651	26.75
530.996	26.76
531.341	26.71
531.686	26.59
532.031	26.38
532.376	26.1
532.721	25.75
533.065	25.38
533.41	25.1
533.755	24.83
534.099	24.64
534.444	24.58
534.788	24.59
535.133	24.65
535.477	24.72
535.822	24.82
536.166	24.95
536.51	25.12
536.855	25.32
537.199	25.55
537.543	25.82
537.887	26.15
538.231	26.52
538.576	26.89
538.92	27.28
539.264	27.71
539.608	28.17
539.951	28.6
540.295	29.02
540.639	29.32
540.983	29.58
541.327	29.81
541.671	29.95
542.014	30.17
542.358	30.39
542.701	30.62
543.045	30.84
543.389	31.04
543.732	31.23
544.075	31.42
544.419	31.6
544.762	31.74
545.105	31.85
545.449	31.92
545.792	31.98
546.135	32.05
546.478	32.12
546.821	32.24
547.165	32.47
547.508	32.73
547.851	33.05
548.194	33.42
548.536	33.82
548.879	34.24
549.222	34.51
549.565	34.75
549.908	34.99
550.25	35.22
550.593	35.49
550.936	35.74
551.278	35.99
551.621	36.23
551.963	36.47
552.306	36.73
552.648	36.97
552.991	37.2
553.333	37.41
553.675	37.65
554.017	37.89
554.36	38.1
554.702	38.34
555.044	38.56
555.386	38.77
555.728	38.99
556.07	39.19
556.412	39.39
556.754	39.61
557.096	39.82
557.438	40.03
557.78	40.23
558.121	40.44
558.463	40.66
558.805	40.9
559.147	41.12
559.488	41.32
559.83	41.54
560.171	41.72
560.513	41.94
560.854	42.15
561.196	42.36
561.537	42.57
561.878	42.76
562.22	42.96
562.561	43.16
562.902	43.35
563.243	43.55
563.584	43.73
563.925	43.92
564.266	44.09
564.607	44.27
564.948	44.45
565.289	44.6
565.63	44.73
565.971	44.88
566.312	45.03
566.653	45.18
566.993	45.32
567.334	45.48
567.675	45.64
568.015	45.79
568.356	45.94
568.696	46.08
569.037	46.21
569.377	46.36
569.718	46.51
570.058	46.67
570.398	46.79
570.739	46.94
571.079	47.06
571.419	47.21
571.759	47.32
572.099	47.43
572.439	47.56
572.779	47.68
573.119	47.8
573.459	47.91
573.799	48.01
574.139	48.11
574.479	48.19
574.819	48.28
575.158	48.35
575.498	48.41
575.838	48.48
576.177	48.56
576.517	48.61
576.856	48.69
577.196	48.75
577.535	48.86
577.875	48.91
578.214	49
578.553	49.07
578.893	49.17
579.232	49.27
579.571	49.32
579.91	49.39
580.25	49.47
580.589	49.53
580.928	49.61
581.267	49.69
581.606	49.8
581.945	49.85
582.283	49.94
582.622	50.04
582.961	50.16
583.3	50.24
583.639	50.33
583.977	50.4
584.316	50.47
584.654	50.56
584.993	50.63
585.332	50.71
585.67	50.77
586.008	50.84
586.347	50.88
586.685	50.96
587.024	51.04
587.362	51.11
587.7	51.19
588.038	51.29
588.376	51.34
588.715	51.4
589.053	51.48
589.391	51.57
589.729	51.64
590.067	51.7
590.404	51.79
590.742	51.85
591.08	51.9
591.418	51.97
591.756	52.05
592.093	52.13
592.431	52.2
592.769	52.26
593.106	52.33
593.444	52.44
593.781	52.51
594.119	52.59
594.456	52.67
594.793	52.73
595.131	52.78
595.468	52.84
595.805	52.91
596.143	52.94
596.48	52.98
596.817	53.05
597.154	53.06
597.491	53.07
597.828	53.13
598.165	53.18
598.502	53.23
598.839	53.28
599.176	53.34
599.512	53.38
599.849	53.44
600.186	53.5
600.523	53.53
600.859	53.58
601.196	53.63
601.532	53.69
601.869	53.75
602.205	53.78
602.542	53.83
602.878	53.86
603.215	53.91
603.551	53.97
603.887	54
604.223	54.08
604.56	54.14
604.896	54.17
605.232	54.23
605.568	54.27
605.904	54.28
606.24	54.3
606.576	54.33
606.912	54.37
607.248	54.41
607.583	54.47
607.919	54.5
608.255	54.52
608.591	54.5
608.926	54.52
609.262	54.58
609.597	54.6
609.933	54.65
610.268	54.67
610.604	54.67
610.939	54.7
611.275	54.71
611.61	54.74
611.945	54.78
612.281	54.8
612.616	54.82
612.951	54.88
613.286	54.92
613.621	54.93
613.956	54.97
614.291	55
614.626	54.99
614.961	54.99
615.296	55.02
615.631	55.11
615.966	55.13
616.3	55.15
616.635	55.18
616.97	55.21
617.304	55.24
617.639	55.27
617.973	55.29
618.308	55.3
618.642	55.34
618.977	55.35
619.311	55.35
619.646	55.38
619.98	55.39
620.314	55.38
620.648	55.43
620.983	55.41
621.317	55.44
621.651	55.47
621.985	55.5
622.319	55.52
622.653	55.53
622.987	55.57
623.321	55.59
623.655	55.64
623.988	55.68
624.322	55.7
624.656	55.74
624.99	55.78
625.323	55.79
625.657	55.85
625.99	55.89
626.324	55.93
626.657	55.98
626.991	56.02
627.324	56.07
627.658	56.1
627.991	56.13
628.324	56.13
628.657	56.17
628.991	56.19
629.324	56.22
629.657	56.27
629.99	56.29
630.323	56.3
630.656	56.29
630.989	56.29
631.322	56.33
631.655	56.37
631.987	56.38
632.32	56.43
632.653	56.4
632.986	56.39
633.318	56.4
633.651	56.43
633.984	56.43
634.316	56.44
634.649	56.46
634.981	56.5
635.313	56.54
635.646	56.56
635.978	56.61
636.31	56.64
636.643	56.62
636.975	56.64
637.307	56.68
637.639	56.71
637.971	56.74
638.303	56.78
638.635	56.76
638.967	56.77
639.299	56.78
639.631	56.83
639.963	56.88
640.295	56.9
640.626	56.89
640.958	56.93
641.29	56.92
641.621	56.94
641.953	56.97
642.285	57
642.616	57.02
642.948	57.03
643.279	57.01
643.61	57.05
643.942	57.04
644.273	57.07
644.604	57.08
644.936	57.09
645.267	57.11
645.598	57.14
645.929	57.15
646.26	57.18
646.591	57.21
646.922	57.21
647.253	57.24
647.584	57.28
647.915	57.31
648.245	57.37
648.576	57.39
648.907	57.4
649.238	57.4
649.568	57.42
649.899	57.43
650.229	57.52
650.56	57.53
650.89	57.57
651.221	57.62
651.551	57.67
651.882	57.69
652.212	57.72
652.542	57.72
652.872	57.76
653.203	57.77
653.533	57.78
653.863	57.79
654.193	57.81
654.523	57.81
654.853	57.85
655.183	57.88
655.513	57.93
655.843	57.95
656.172	58.02
656.502	58.03
656.832	58.07
657.162	58.06
657.491	58.07
657.821	58.08
658.15	58.1
658.48	58.12
658.809	58.14
659.139	58.14
659.468	58.18
659.798	58.19
660.127	58.21
660.456	58.21
660.785	58.25
661.115	58.26
661.444	58.27
661.773	58.26
662.102	58.25
662.431	58.23
662.76	58.25
663.089	58.22
663.418	58.22
663.747	58.22
664.076	58.22
664.404	58.25
664.733	58.31
665.062	58.32
665.39	58.32
665.719	58.38
666.048	58.38
666.376	58.38
666.705	58.4
667.033	58.44
667.362	58.5
