Data from UWBM59056_Reflection_00001.txt Node
Date: Sun May 02 13:43:44 EDT 2021
User: vgr7
Spectrometer: USB2G7710
Scans to average: 10
Trigger mode: 4
Integration Time (sec): 1.000000E-1
Electric dark correction enabled: true
Boxcar width: 20
XAxis mode: Wavelengths
Number of Pixels in Spectrum: 2048
>>>>>Begin Spectral Data<<<<<
177.721	163.99
178.105	157.75
178.488	174.81
178.871	176.15
179.254	175.64
179.636	103.33
180.019	83.83
180.402	75.32
180.785	64.4
181.168	57.72
181.55	49.3
181.933	43.25
182.316	34.55
182.698	32.07
183.081	26.76
183.463	21.64
183.846	16.9
184.228	18.12
184.611	18.07
184.993	16.11
185.376	14.62
185.758	17.12
186.14	19.64
186.522	18.03
186.904	16.75
187.287	15.13
187.669	17.28
188.051	16.09
188.433	14.63
188.815	11.8
189.197	12.32
189.579	11.6
189.961	7.08
190.342	5.43
190.724	6.49
191.106	6.77
191.488	7.57
191.869	5.29
192.251	4.46
192.633	2.65
193.014	0.44
193.396	-2.74
193.777	-0.97
194.159	-2.14
194.54	-1.83
194.922	-4.33
195.303	-5.12
195.684	-6.95
196.065	-8.88
196.447	-8.48
196.828	-10.76
197.209	-11.65
197.59	-13.66
197.971	-13.19
198.352	-10.75
198.733	-8.38
199.114	-7.81
199.495	-6.18
199.876	-8.85
200.257	-8.28
200.638	-8.68
201.018	-7.85
201.399	-7.17
201.78	-7.69
202.16	-7.23
202.541	-7.1
202.922	-7.94
203.302	-7.57
203.683	-6.97
204.063	-6.02
204.444	-7.37
204.824	-6.93
205.204	-8.92
205.585	-7.27
205.965	-6.31
206.345	-6.74
206.725	-6.81
207.106	-6.82
207.486	-5.73
207.866	-5.3
208.246	-7.58
208.626	-8.27
209.006	-6.37
209.386	-6.94
209.766	-7.1
210.145	-7.92
210.525	-5.8
210.905	-3.36
211.285	-4.38
211.664	-2.66
212.044	-4.03
212.424	-3.43
212.803	-1.96
213.183	-1.79
213.562	-0.69
213.942	-2.6
214.321	-3.59
214.701	-3.86
215.08	-3.51
215.459	-2.79
215.838	-3.64
216.218	-4.32
216.597	-4.44
216.976	-3.91
217.355	-3.8
217.734	-3.71
218.113	-4.35
218.492	-4.87
218.871	-4.99
219.25	-5.31
219.629	-5.22
220.008	-4.07
220.387	-5.91
220.766	-3.13
221.144	-2.77
221.523	-2.53
221.902	-2.3
222.28	-1.66
222.659	-1.2
223.037	-0.69
223.416	0.42
223.794	1.39
224.173	1.91
224.551	1.4
224.929	2.21
225.308	2.59
225.686	3.03
226.064	2.79
226.442	1.97
226.821	2.78
227.199	3.24
227.577	4.02
227.955	4.61
228.333	4.36
228.711	4.45
229.089	3.72
229.467	3.59
229.845	3.33
230.222	3.33
230.6	3.52
230.978	3.58
231.356	3.97
231.733	4.18
232.111	3.89
232.488	3.48
232.866	3.39
233.243	3.22
233.621	3.44
233.998	3.59
234.376	3.57
234.753	3.59
235.13	3.54
235.508	3.53
235.885	3.62
236.262	3.33
236.639	3.27
237.016	3.28
237.393	3.33
237.77	3.32
238.147	3.17
238.524	3.05
238.901	2.92
239.278	2.98
239.655	3.02
240.032	3.04
240.409	2.99
240.785	2.99
241.162	3.01
241.539	3
241.915	3.07
242.292	3.07
242.668	3.03
243.045	2.96
243.421	2.88
243.798	2.87
244.174	2.89
244.551	2.96
244.927	2.98
245.303	3.01
245.679	3.02
246.056	2.95
246.432	2.98
246.808	2.92
247.184	2.92
247.56	2.96
247.936	2.97
248.312	2.96
248.688	2.96
249.064	2.95
249.44	2.93
249.815	2.91
250.191	2.88
250.567	2.9
250.943	2.87
251.318	2.88
251.694	2.92
252.069	2.93
252.445	2.94
252.82	2.93
253.196	2.93
253.571	2.92
253.947	2.94
254.322	2.94
254.697	2.93
255.073	2.9
255.448	2.91
255.823	2.88
256.198	2.89
256.573	2.85
256.948	2.84
257.323	2.83
257.698	2.81
258.073	2.79
258.448	2.78
258.823	2.77
259.198	2.76
259.573	2.74
259.948	2.72
260.322	2.7
260.697	2.67
261.072	2.66
261.446	2.66
261.821	2.65
262.195	2.66
262.57	2.66
262.944	2.63
263.319	2.63
263.693	2.63
264.067	2.63
264.442	2.64
264.816	2.64
265.19	2.64
265.564	2.66
265.938	2.63
266.313	2.66
266.687	2.65
267.061	2.65
267.435	2.64
267.809	2.62
268.183	2.63
268.556	2.61
268.93	2.62
269.304	2.6
269.678	2.59
270.051	2.57
270.425	2.56
270.799	2.52
271.172	2.54
271.546	2.52
271.919	2.54
272.293	2.54
272.666	2.53
273.04	2.54
273.413	2.58
273.787	2.58
274.16	2.61
274.533	2.62
274.906	2.64
275.279	2.65
275.653	2.66
276.026	2.68
276.399	2.7
276.772	2.71
277.145	2.7
277.518	2.71
277.891	2.72
278.263	2.72
278.636	2.72
279.009	2.7
279.382	2.7
279.755	2.69
280.127	2.7
280.5	2.7
280.872	2.72
281.245	2.72
281.617	2.71
281.99	2.71
282.362	2.69
282.735	2.69
283.107	2.68
283.479	2.67
283.852	2.68
284.224	2.68
284.596	2.66
284.968	2.67
285.34	2.68
285.713	2.68
286.085	2.7
286.457	2.7
286.829	2.7
287.201	2.7
287.572	2.69
287.944	2.7
288.316	2.68
288.688	2.67
289.06	2.67
289.431	2.67
289.803	2.67
290.175	2.66
290.546	2.67
290.918	2.67
291.289	2.68
291.661	2.67
292.032	2.65
292.403	2.66
292.775	2.65
293.146	2.64
293.517	2.65
293.889	2.65
294.26	2.68
294.631	2.69
295.002	2.7
295.373	2.7
295.744	2.7
296.115	2.69
296.486	2.7
296.857	2.7
297.228	2.72
297.599	2.72
297.97	2.72
298.34	2.72
298.711	2.73
299.082	2.73
299.452	2.72
299.823	2.74
300.194	2.73
300.564	2.73
300.935	2.74
301.305	2.75
301.676	2.75
302.046	2.75
302.416	2.74
302.787	2.73
303.157	2.73
303.527	2.74
303.897	2.73
304.267	2.75
304.637	2.75
305.008	2.75
305.378	2.75
305.748	2.75
306.117	2.74
306.487	2.75
306.857	2.76
307.227	2.76
307.597	2.77
307.967	2.77
308.336	2.79
308.706	2.76
309.076	2.77
309.445	2.77
309.815	2.76
310.184	2.74
310.554	2.74
310.923	2.74
311.293	2.73
311.662	2.72
312.031	2.72
312.401	2.72
312.77	2.72
313.139	2.71
313.508	2.72
313.877	2.72
314.246	2.73
314.616	2.72
314.985	2.72
315.353	2.74
315.722	2.72
316.091	2.72
316.46	2.72
316.829	2.72
317.198	2.71
317.567	2.72
317.935	2.72
318.304	2.72
318.672	2.71
319.041	2.73
319.41	2.71
319.778	2.72
320.147	2.71
320.515	2.7
320.883	2.7
321.252	2.7
321.62	2.7
321.988	2.69
322.357	2.7
322.725	2.7
323.093	2.7
323.461	2.68
323.829	2.7
324.197	2.69
324.565	2.67
324.933	2.68
325.301	2.68
325.669	2.69
326.037	2.68
326.405	2.68
326.772	2.68
327.14	2.69
327.508	2.67
327.875	2.68
328.243	2.68
328.61	2.68
328.978	2.67
329.346	2.65
329.713	2.68
330.08	2.68
330.448	2.66
330.815	2.66
331.182	2.64
331.55	2.64
331.917	2.64
332.284	2.63
332.651	2.63
333.018	2.65
333.385	2.64
333.752	2.64
334.119	2.64
334.486	2.64
334.853	2.64
335.22	2.65
335.587	2.64
335.954	2.64
336.32	2.63
336.687	2.61
337.054	2.62
337.42	2.61
337.787	2.61
338.153	2.62
338.52	2.62
338.886	2.61
339.253	2.6
339.619	2.61
339.986	2.61
340.352	2.61
340.718	2.61
341.084	2.61
341.451	2.61
341.817	2.62
342.183	2.62
342.549	2.63
342.915	2.62
343.281	2.62
343.647	2.62
344.013	2.61
344.379	2.62
344.745	2.61
345.11	2.61
345.476	2.63
345.842	2.64
346.208	2.65
346.573	2.64
346.939	2.65
347.304	2.67
347.67	2.67
348.035	2.66
348.401	2.66
348.766	2.66
349.132	2.65
349.497	2.66
349.862	2.65
350.228	2.65
350.593	2.65
350.958	2.65
351.323	2.66
351.688	2.67
352.053	2.67
352.418	2.68
352.783	2.69
353.148	2.69
353.513	2.7
353.878	2.7
354.243	2.71
354.608	2.71
354.972	2.72
355.337	2.73
355.702	2.73
356.066	2.72
356.431	2.72
356.795	2.72
357.16	2.71
357.524	2.72
357.889	2.72
358.253	2.73
358.618	2.72
358.982	2.71
359.346	2.72
359.71	2.73
360.075	2.74
360.439	2.73
360.803	2.73
361.167	2.73
361.531	2.73
361.895	2.73
362.259	2.72
362.623	2.72
362.987	2.73
363.351	2.73
363.714	2.73
364.078	2.73
364.442	2.74
364.806	2.74
365.169	2.74
365.533	2.75
365.896	2.75
366.26	2.75
366.623	2.75
366.987	2.75
367.35	2.75
367.714	2.75
368.077	2.75
368.44	2.75
368.803	2.75
369.167	2.75
369.53	2.75
369.893	2.75
370.256	2.74
370.619	2.75
370.982	2.75
371.345	2.76
371.708	2.77
372.071	2.78
372.434	2.77
372.797	2.77
373.159	2.77
373.522	2.78
373.885	2.79
374.247	2.79
374.61	2.78
374.973	2.78
375.335	2.78
375.698	2.78
376.06	2.78
376.423	2.78
376.785	2.79
377.147	2.79
377.51	2.79
377.872	2.79
378.234	2.79
378.596	2.79
378.958	2.79
379.321	2.79
379.683	2.79
380.045	2.79
380.407	2.79
380.769	2.79
381.13	2.79
381.492	2.79
381.854	2.8
382.216	2.8
382.578	2.8
382.939	2.8
383.301	2.81
383.663	2.81
384.024	2.81
384.386	2.81
384.747	2.81
385.109	2.81
385.47	2.81
385.832	2.81
386.193	2.81
386.554	2.8
386.916	2.8
387.277	2.8
387.638	2.8
387.999	2.81
388.36	2.81
388.721	2.81
389.082	2.81
389.443	2.82
389.804	2.81
390.165	2.81
390.526	2.81
390.887	2.81
391.248	2.82
391.609	2.82
391.969	2.82
392.33	2.82
392.691	2.82
393.051	2.82
393.412	2.83
393.772	2.83
394.133	2.83
394.493	2.83
394.854	2.83
395.214	2.83
395.574	2.83
395.935	2.83
396.295	2.83
396.655	2.83
397.015	2.83
397.376	2.83
397.736	2.83
398.096	2.83
398.456	2.83
398.816	2.84
399.176	2.84
399.535	2.84
399.895	2.84
400.255	2.85
400.615	2.85
400.975	2.85
401.334	2.86
401.694	2.86
402.054	2.86
402.413	2.86
402.773	2.86
403.132	2.87
403.492	2.87
403.851	2.87
404.211	2.88
404.57	2.88
404.929	2.88
405.288	2.88
405.648	2.89
406.007	2.89
406.366	2.89
406.725	2.89
407.084	2.89
407.443	2.89
407.802	2.9
408.161	2.9
408.52	2.9
408.879	2.9
409.238	2.9
409.596	2.91
409.955	2.91
410.314	2.92
410.673	2.92
411.031	2.92
411.39	2.93
411.748	2.94
412.107	2.95
412.465	2.96
412.824	2.97
413.182	2.99
413.54	3.01
413.899	3.03
414.257	3.05
414.615	3.08
414.974	3.11
415.332	3.13
415.69	3.16
416.048	3.19
416.406	3.22
416.764	3.25
417.122	3.27
417.48	3.29
417.838	3.32
418.195	3.34
418.553	3.35
418.911	3.36
419.269	3.37
419.626	3.37
419.984	3.37
420.342	3.36
420.699	3.35
421.057	3.34
421.414	3.33
421.772	3.32
422.129	3.31
422.486	3.32
422.844	3.32
423.201	3.32
423.558	3.32
423.915	3.32
424.273	3.32
424.63	3.32
424.987	3.32
425.344	3.32
425.701	3.32
426.058	3.33
426.415	3.33
426.772	3.33
427.128	3.33
427.485	3.32
427.842	3.32
428.199	3.31
428.555	3.3
428.912	3.28
429.269	3.26
429.625	3.25
429.982	3.23
430.338	3.21
430.695	3.2
431.051	3.17
431.407	3.16
431.764	3.14
432.12	3.13
432.476	3.12
432.832	3.11
433.189	3.12
433.545	3.12
433.901	3.13
434.257	3.15
434.613	3.17
434.969	3.19
435.325	3.21
435.681	3.24
436.036	3.25
436.392	3.27
436.748	3.28
437.104	3.29
437.459	3.3
437.815	3.31
438.171	3.33
438.526	3.35
438.882	3.37
439.237	3.4
439.593	3.43
439.948	3.46
440.304	3.48
440.659	3.5
441.014	3.52
441.369	3.54
441.725	3.56
442.08	3.57
442.435	3.58
442.79	3.59
443.145	3.59
443.5	3.59
443.855	3.59
444.21	3.59
444.565	3.59
444.92	3.58
445.275	3.57
445.629	3.57
445.984	3.56
446.339	3.56
446.693	3.55
447.048	3.54
447.403	3.53
447.757	3.51
448.112	3.5
448.466	3.48
448.82	3.47
449.175	3.45
449.529	3.44
449.883	3.43
450.238	3.42
450.592	3.41
450.946	3.41
451.3	3.41
451.654	3.42
452.008	3.42
452.362	3.43
452.716	3.43
453.07	3.43
453.424	3.43
453.778	3.42
454.132	3.42
454.486	3.41
454.839	3.4
455.193	3.38
455.547	3.37
455.9	3.35
456.254	3.34
456.607	3.32
456.961	3.29
457.314	3.28
457.668	3.27
458.021	3.27
458.375	3.27
458.728	3.27
459.081	3.27
459.434	3.28
459.787	3.29
460.141	3.31
460.494	3.31
460.847	3.32
461.2	3.32
461.553	3.33
461.906	3.33
462.259	3.33
462.611	3.34
462.964	3.34
463.317	3.35
463.67	3.35
464.022	3.35
464.375	3.36
464.728	3.36
465.08	3.36
465.433	3.36
465.785	3.36
466.138	3.35
466.49	3.33
466.843	3.32
467.195	3.3
467.547	3.28
467.899	3.27
468.252	3.24
468.604	3.22
468.956	3.21
469.308	3.2
469.66	3.2
470.012	3.19
470.364	3.19
470.716	3.2
471.068	3.21
471.42	3.23
471.772	3.24
472.123	3.25
472.475	3.26
472.827	3.27
473.178	3.28
473.53	3.28
473.882	3.29
474.233	3.31
474.585	3.33
474.936	3.38
475.288	3.45
475.639	3.54
475.99	3.64
476.342	3.76
476.693	3.88
477.044	4.01
477.395	4.15
477.746	4.28
478.097	4.42
478.448	4.56
478.8	4.7
479.15	4.82
479.501	4.94
479.852	5.05
480.203	5.16
480.554	5.26
480.905	5.35
481.255	5.44
481.606	5.53
481.957	5.61
482.307	5.69
482.658	5.76
483.009	5.83
483.359	5.9
483.709	5.96
484.06	6.02
484.41	6.09
484.761	6.14
485.111	6.2
485.461	6.25
485.811	6.3
486.162	6.35
486.512	6.39
486.862	6.42
487.212	6.44
487.562	6.46
487.912	6.47
488.262	6.47
488.612	6.47
488.961	6.45
489.311	6.42
489.661	6.36
490.011	6.3
490.36	6.21
490.71	6.12
491.06	6.02
491.409	5.91
491.759	5.79
492.108	5.67
492.458	5.54
492.807	5.41
493.157	5.28
493.506	5.15
493.855	5.03
494.204	4.92
494.554	4.81
494.903	4.71
495.252	4.61
495.601	4.52
495.95	4.43
496.299	4.35
496.648	4.27
496.997	4.2
497.346	4.13
497.695	4.06
498.043	3.99
498.392	3.92
498.741	3.86
499.09	3.8
499.438	3.74
499.787	3.68
500.135	3.63
500.484	3.58
500.832	3.54
501.181	3.51
501.529	3.49
501.878	3.47
502.226	3.47
502.574	3.46
502.923	3.46
503.271	3.46
503.619	3.46
503.967	3.46
504.315	3.46
504.663	3.45
505.011	3.45
505.359	3.44
505.707	3.44
506.055	3.44
506.403	3.43
506.751	3.44
507.098	3.44
507.446	3.45
507.794	3.45
508.141	3.46
508.489	3.48
508.837	3.49
509.184	3.5
509.531	3.51
509.879	3.51
510.226	3.53
510.574	3.53
510.921	3.54
511.268	3.56
511.616	3.57
511.963	3.59
512.31	3.6
512.657	3.62
513.004	3.63
513.351	3.65
513.698	3.66
514.045	3.66
514.392	3.66
514.739	3.66
515.086	3.66
515.432	3.66
515.779	3.65
516.126	3.65
516.473	3.65
516.819	3.65
517.166	3.66
517.512	3.66
517.859	3.67
518.205	3.68
518.552	3.7
518.898	3.72
519.245	3.75
519.591	3.8
519.937	3.85
520.283	3.92
520.629	4
520.976	4.09
521.322	4.18
521.668	4.28
522.014	4.37
522.36	4.47
522.706	4.56
523.052	4.65
523.398	4.73
523.743	4.81
524.089	4.87
524.435	4.93
524.781	4.98
525.126	5.03
525.472	5.07
525.817	5.12
526.163	5.16
526.509	5.19
526.854	5.23
527.199	5.27
527.545	5.3
527.89	5.34
528.235	5.38
528.581	5.41
528.926	5.45
529.271	5.48
529.616	5.51
529.961	5.54
530.306	5.56
530.651	5.58
530.996	5.59
531.341	5.6
531.686	5.61
532.031	5.61
532.376	5.62
532.721	5.62
533.065	5.62
533.41	5.63
533.755	5.63
534.099	5.62
534.444	5.6
534.788	5.57
535.133	5.54
535.477	5.5
535.822	5.46
536.166	5.41
536.51	5.36
536.855	5.29
537.199	5.23
537.543	5.17
537.887	5.12
538.231	5.07
538.576	5.02
538.92	4.98
539.264	4.93
539.608	4.88
539.951	4.83
540.295	4.78
540.639	4.73
540.983	4.67
541.327	4.62
541.671	4.57
542.014	4.52
542.358	4.48
542.701	4.45
543.045	4.42
543.389	4.4
543.732	4.39
544.075	4.37
544.419	4.36
544.762	4.35
545.105	4.34
545.449	4.33
545.792	4.32
546.135	4.32
546.478	4.3
546.821	4.29
547.165	4.27
547.508	4.24
547.851	4.2
548.194	4.16
548.536	4.11
548.879	4.06
549.222	4
549.565	3.94
549.908	3.88
550.25	3.83
550.593	3.79
550.936	3.75
551.278	3.72
551.621	3.69
551.963	3.66
552.306	3.64
552.648	3.63
552.991	3.62
553.333	3.6
553.675	3.6
554.017	3.6
554.36	3.6
554.702	3.6
555.044	3.61
555.386	3.62
555.728	3.64
556.07	3.65
556.412	3.66
556.754	3.66
557.096	3.66
557.438	3.66
557.78	3.67
558.121	3.67
558.463	3.67
558.805	3.67
559.147	3.67
559.488	3.67
559.83	3.67
560.171	3.68
560.513	3.68
560.854	3.68
561.196	3.68
561.537	3.68
561.878	3.68
562.22	3.68
562.561	3.68
562.902	3.69
563.243	3.69
563.584	3.69
563.925	3.69
564.266	3.7
564.607	3.7
564.948	3.7
565.289	3.71
565.63	3.71
565.971	3.71
566.312	3.72
566.653	3.72
566.993	3.73
567.334	3.73
567.675	3.73
568.015	3.74
568.356	3.74
568.696	3.74
569.037	3.74
569.377	3.75
569.718	3.75
570.058	3.74
570.398	3.74
570.739	3.75
571.079	3.74
571.419	3.75
571.759	3.75
572.099	3.75
572.439	3.75
572.779	3.75
573.119	3.75
573.459	3.75
573.799	3.75
574.139	3.75
574.479	3.75
574.819	3.75
575.158	3.75
575.498	3.75
575.838	3.75
576.177	3.75
576.517	3.75
576.856	3.75
577.196	3.75
577.535	3.75
577.875	3.75
578.214	3.75
578.553	3.76
578.893	3.76
579.232	3.75
579.571	3.75
579.91	3.75
580.25	3.75
580.589	3.75
580.928	3.75
581.267	3.75
581.606	3.75
581.945	3.74
582.283	3.74
582.622	3.74
582.961	3.74
583.3	3.74
583.639	3.75
583.977	3.75
584.316	3.76
584.654	3.76
584.993	3.76
585.332	3.76
585.67	3.76
586.008	3.75
586.347	3.75
586.685	3.76
587.024	3.76
587.362	3.76
587.7	3.76
588.038	3.76
588.376	3.76
588.715	3.76
589.053	3.76
589.391	3.76
589.729	3.77
590.067	3.77
590.404	3.77
590.742	3.78
591.08	3.78
591.418	3.78
591.756	3.79
592.093	3.79
592.431	3.79
592.769	3.79
593.106	3.79
593.444	3.8
593.781	3.8
594.119	3.8
594.456	3.8
594.793	3.81
595.131	3.81
595.468	3.81
595.805	3.81
596.143	3.81
596.48	3.81
596.817	3.81
597.154	3.81
597.491	3.81
597.828	3.81
598.165	3.81
598.502	3.82
598.839	3.82
599.176	3.83
599.512	3.83
599.849	3.84
600.186	3.84
600.523	3.84
600.859	3.85
601.196	3.85
601.532	3.85
601.869	3.85
602.205	3.86
602.542	3.86
602.878	3.87
603.215	3.87
603.551	3.86
603.887	3.87
604.223	3.87
604.56	3.87
604.896	3.87
605.232	3.88
605.568	3.88
605.904	3.88
606.24	3.88
606.576	3.88
606.912	3.88
607.248	3.87
607.583	3.87
607.919	3.88
608.255	3.87
608.591	3.88
608.926	3.88
609.262	3.88
609.597	3.88
609.933	3.88
610.268	3.89
610.604	3.89
610.939	3.89
611.275	3.89
611.61	3.9
611.945	3.9
612.281	3.89
612.616	3.89
612.951	3.89
613.286	3.88
613.621	3.88
613.956	3.88
614.291	3.88
614.626	3.88
614.961	3.89
615.296	3.89
615.631	3.89
615.966	3.9
616.3	3.9
616.635	3.89
616.97	3.89
617.304	3.89
617.639	3.89
617.973	3.88
618.308	3.88
618.642	3.88
618.977	3.88
619.311	3.88
619.646	3.88
619.98	3.88
620.314	3.89
620.648	3.89
620.983	3.89
621.317	3.9
621.651	3.9
621.985	3.91
622.319	3.92
622.653	3.92
622.987	3.92
623.321	3.92
623.655	3.93
623.988	3.93
624.322	3.93
624.656	3.94
624.99	3.94
625.323	3.94
625.657	3.94
625.99	3.94
626.324	3.94
626.657	3.94
626.991	3.95
627.324	3.95
627.658	3.95
627.991	3.94
628.324	3.94
628.657	3.95
628.991	3.95
629.324	3.96
629.657	3.96
629.99	3.96
630.323	3.97
630.656	3.97
630.989	3.97
631.322	3.98
631.655	3.99
631.987	3.99
632.32	3.99
632.653	3.99
632.986	3.99
633.318	4
633.651	4
633.984	4
634.316	4
634.649	4
634.981	4
635.313	4
635.646	4
635.978	4
636.31	4.01
636.643	4.01
636.975	4.02
637.307	4.01
637.639	4.02
637.971	4.02
638.303	4.01
638.635	4.01
638.967	4.02
639.299	4.02
639.631	4.03
639.963	4.04
640.295	4.05
640.626	4.05
640.958	4.06
641.29	4.06
641.621	4.07
641.953	4.08
642.285	4.08
642.616	4.08
642.948	4.08
643.279	4.08
643.61	4.09
643.942	4.09
644.273	4.09
644.604	4.1
644.936	4.1
645.267	4.1
645.598	4.1
645.929	4.11
646.26	4.12
646.591	4.11
646.922	4.12
647.253	4.12
647.584	4.13
647.915	4.13
648.245	4.14
648.576	4.14
648.907	4.14
649.238	4.14
649.568	4.14
649.899	4.13
650.229	4.13
650.56	4.13
650.89	4.14
651.221	4.14
651.551	4.15
651.882	4.15
652.212	4.15
652.542	4.15
652.872	4.15
653.203	4.15
653.533	4.15
653.863	4.15
654.193	4.15
654.523	4.16
654.853	4.16
655.183	4.17
655.513	4.17
655.843	4.18
656.172	4.17
656.502	4.17
656.832	4.17
657.162	4.17
657.491	4.17
657.821	4.17
658.15	4.17
658.48	4.18
658.809	4.18
659.139	4.19
659.468	4.18
659.798	4.19
660.127	4.2
660.456	4.2
660.785	4.2
661.115	4.21
661.444	4.22
661.773	4.23
662.102	4.23
662.431	4.23
662.76	4.24
663.089	4.25
663.418	4.26
663.747	4.27
664.076	4.27
664.404	4.28
664.733	4.29
665.062	4.3
665.39	4.31
665.719	4.31
666.048	4.33
666.376	4.32
666.705	4.33
667.033	4.34
667.362	4.35
667.69	4.34
668.018	4.34
668.347	4.34
668.675	4.34
669.003	4.35
669.331	4.35
669.659	4.36
669.987	4.36
670.315	4.36
670.643	4.37
670.971	4.38
671.299	4.38
671.627	4.39
671.955	4.39
672.283	4.39
672.61	4.4
672.938	4.4
673.266	4.41
673.593	4.41
673.921	4.41
674.249	4.42
674.576	4.41
674.904	4.41
675.231	4.41
675.558	4.4
675.886	4.41
676.213	4.41
676.54	4.41
676.867	4.4
677.195	4.4
677.522	4.4
677.849	4.4
678.176	4.4
678.503	4.39
678.83	4.39
679.157	4.39
679.484	4.39
679.81	4.41
680.137	4.4
680.464	4.4
680.791	4.4
