Data from UWBM91361_Reflection_00007.txt Node
Date: Sun May 02 12:21:37 EDT 2021
User: vgr7
Spectrometer: USB2G7710
Scans to average: 10
Trigger mode: 4
Integration Time (sec): 1.000000E-1
Electric dark correction enabled: true
Boxcar width: 10
XAxis mode: Wavelengths
Number of Pixels in Spectrum: 2048
>>>>>Begin Spectral Data<<<<<
177.721	327.4
178.105	-170.59
178.488	71.92
178.871	105.14
179.254	127.59
179.636	20.78
180.019	16.73
180.402	58.33
180.785	93.73
181.168	174.47
181.55	98.17
181.933	63.64
182.316	52.66
182.698	-63.48
183.081	-78.82
183.463	-79.13
183.846	40.34
184.228	36.68
184.611	24.75
184.993	24.82
185.376	35.71
185.758	25.96
186.14	25.59
186.522	22.06
186.904	8.37
187.287	11.69
187.669	14.56
188.051	15.43
188.433	19.08
188.815	16.18
189.197	11.62
189.579	9.77
189.961	7.87
190.342	6.83
190.724	11.36
191.106	11.59
191.488	17.61
191.869	11.96
192.251	11.74
192.633	9.94
193.014	8.35
193.396	6.35
193.777	8.63
194.159	5.37
194.54	-2.7
194.922	-0.26
195.303	5.69
195.684	5.75
196.065	4.86
196.447	-1.35
196.828	-0.93
197.209	-4.72
197.59	-3.33
197.971	-2.28
198.352	-1.4
198.733	6.85
199.114	5.39
199.495	1.92
199.876	7.75
200.257	11.02
200.638	8.69
201.018	8.97
201.399	5.79
201.78	0.84
202.16	5.77
202.541	7.43
202.922	7.42
203.302	3.53
203.683	4.29
204.063	6.43
204.444	10.45
204.824	11.32
205.204	14.64
205.585	15.93
205.965	15.12
206.345	16.01
206.725	7.64
207.106	6.02
207.486	7.51
207.866	6.36
208.246	3.17
208.626	11.23
209.006	10.89
209.386	12.7
209.766	15.28
210.145	11.61
210.525	10.04
210.905	11.97
211.285	14.33
211.664	13.8
212.044	13.32
212.424	14.25
212.803	11.55
213.183	10.92
213.562	10.47
213.942	10.14
214.321	6.25
214.701	5.22
215.08	11.53
215.459	8.3
215.838	3.4
216.218	3.6
216.597	1.42
216.976	2.53
217.355	3.31
217.734	3.33
218.113	4.78
218.492	6.7
218.871	4.9
219.25	3.55
219.629	2.68
220.008	3.11
220.387	1.38
220.766	-1.28
221.144	2.56
221.523	4.4
221.902	2.47
222.28	5.62
222.659	5.48
223.037	4.82
223.416	4.89
223.794	5.52
224.173	5.37
224.551	5.31
224.929	4.34
225.308	6.12
225.686	6.98
226.064	6.76
226.442	6.86
226.821	6.84
227.199	6.68
227.577	4.95
227.955	4.47
228.333	4.64
228.711	4.51
229.089	5.72
229.467	3.91
229.845	6.29
230.222	5.83
230.6	6.23
230.978	5.73
231.356	5.91
231.733	5.96
232.111	6.04
232.488	5.37
232.866	5.18
233.243	4.61
233.621	4.6
233.998	4.38
234.376	4.57
234.753	4.58
235.13	4.6
235.508	6.33
235.885	5.94
236.262	6.05
236.639	6.89
237.016	6.35
237.393	6.9
237.77	5.82
238.147	5.64
238.524	5.57
238.901	5.54
239.278	5.45
239.655	5.58
240.032	5.46
240.409	5.55
240.785	5.54
241.162	5.43
241.539	5.49
241.915	5.57
242.292	5.5
242.668	5.44
243.045	5.36
243.421	5.15
243.798	5.24
244.174	5.19
244.551	5.05
244.927	4.94
245.303	4.85
245.679	5
246.056	4.93
246.432	4.95
246.808	4.87
247.184	4.93
247.56	4.89
247.936	4.91
248.312	4.89
248.688	4.89
249.064	4.86
249.44	4.78
249.815	4.71
250.191	4.67
250.567	4.7
250.943	4.72
251.318	4.77
251.694	4.67
252.069	4.67
252.445	4.73
252.82	4.69
253.196	4.67
253.571	4.55
253.947	4.68
254.322	4.62
254.697	4.73
255.073	4.6
255.448	4.6
255.823	4.6
256.198	4.51
256.573	4.51
256.948	4.51
257.323	4.56
257.698	4.56
258.073	4.56
258.448	4.56
258.823	4.57
259.198	4.5
259.573	4.54
259.948	4.5
260.322	4.46
260.697	4.45
261.072	4.44
261.446	4.43
261.821	4.42
262.195	4.37
262.57	4.32
262.944	4.3
263.319	4.32
263.693	4.32
264.067	4.36
264.442	4.37
264.816	4.35
265.19	4.33
265.564	4.32
265.938	4.26
266.313	4.22
266.687	4.11
267.061	4.09
267.435	4.06
267.809	4.09
268.183	4.1
268.556	4.13
268.93	4.15
269.304	4.1
269.678	4.11
270.051	4.11
270.425	4.11
270.799	4.17
271.172	4.13
271.546	4.12
271.919	4.15
272.293	4.1
272.666	4.12
273.04	4.07
273.413	4
273.787	4.01
274.16	4
274.533	4.06
274.906	4.05
275.279	4.09
275.653	4.04
276.026	3.97
276.399	3.89
276.772	3.9
277.145	3.94
277.518	3.91
277.891	3.95
278.263	3.95
278.636	3.94
279.009	3.97
279.382	3.94
279.755	3.85
280.127	3.88
280.5	3.89
280.872	3.87
281.245	3.95
281.617	3.96
281.99	4
282.362	3.96
282.735	3.98
283.107	3.98
283.479	4.03
283.852	4.11
284.224	4.19
284.596	4.17
284.968	4.22
285.34	4.26
285.713	4.32
286.085	4.32
286.457	4.33
286.829	4.31
287.201	4.37
287.572	4.44
287.944	4.48
288.316	4.52
288.688	4.63
289.06	4.67
289.431	4.7
289.803	4.74
290.175	4.81
290.546	4.86
290.918	4.89
291.289	4.91
291.661	4.95
292.032	4.95
292.403	5.04
292.775	5.08
293.146	5.11
293.517	5.16
293.889	5.24
294.26	5.3
294.631	5.36
295.002	5.39
295.373	5.43
295.744	5.45
296.115	5.5
296.486	5.51
296.857	5.53
297.228	5.59
297.599	5.64
297.97	5.68
298.34	5.75
298.711	5.82
299.082	5.87
299.452	5.91
299.823	6.01
300.194	6.07
300.564	6.09
300.935	6.17
301.305	6.23
301.676	6.27
302.046	6.31
302.416	6.4
302.787	6.48
303.157	6.57
303.527	6.68
303.897	6.76
304.267	6.89
304.637	7.02
305.008	7.18
305.378	7.27
305.748	7.36
306.117	7.41
306.487	7.49
306.857	7.59
307.227	7.69
307.597	7.77
307.967	7.86
308.336	7.98
308.706	8.06
309.076	8.15
309.445	8.24
309.815	8.33
310.184	8.43
310.554	8.51
310.923	8.58
311.293	8.66
311.662	8.73
312.031	8.78
312.401	8.88
312.77	8.89
313.139	8.97
313.508	9.04
313.877	9.15
314.246	9.21
314.616	9.31
314.985	9.41
315.353	9.5
315.722	9.61
316.091	9.68
316.46	9.8
316.829	9.89
317.198	9.99
317.567	10.06
317.935	10.16
318.304	10.25
318.672	10.33
319.041	10.43
319.41	10.52
319.778	10.63
320.147	10.73
320.515	10.85
320.883	10.94
321.252	11.02
321.62	11.07
321.988	11.17
322.357	11.24
322.725	11.3
323.093	11.37
323.461	11.41
323.829	11.47
324.197	11.5
324.565	11.52
324.933	11.57
325.301	11.69
325.669	11.75
326.037	11.81
326.405	11.84
326.772	11.87
327.14	11.89
327.508	11.92
327.875	11.93
328.243	11.99
328.61	12
328.978	12.11
329.346	12.12
329.713	12.14
330.08	12.18
330.448	12.22
330.815	12.25
331.182	12.28
331.55	12.34
331.917	12.4
332.284	12.46
332.651	12.55
333.018	12.56
333.385	12.57
333.752	12.61
334.119	12.68
334.486	12.72
334.853	12.76
335.22	12.8
335.587	12.81
335.954	12.85
336.32	12.89
336.687	12.89
337.054	12.95
337.42	13.03
337.787	13.07
338.153	13.15
338.52	13.22
338.886	13.28
339.253	13.29
339.619	13.31
339.986	13.36
340.352	13.38
340.718	13.45
341.084	13.51
341.451	13.52
341.817	13.54
342.183	13.61
342.549	13.65
342.915	13.69
343.281	13.74
343.647	13.77
344.013	13.83
344.379	13.83
344.745	13.86
345.11	13.87
345.476	13.9
345.842	13.91
346.208	13.91
346.573	13.93
346.939	13.95
347.304	13.97
347.67	13.94
348.035	13.92
348.401	13.87
348.766	13.85
349.132	13.88
349.497	13.9
349.862	13.87
350.228	13.87
350.593	13.85
350.958	13.83
351.323	13.82
351.688	13.8
352.053	13.8
352.418	13.83
352.783	13.81
353.148	13.78
353.513	13.71
353.878	13.67
354.243	13.66
354.608	13.64
354.972	13.64
355.337	13.64
355.702	13.59
356.066	13.59
356.431	13.55
356.795	13.5
357.16	13.44
357.524	13.41
357.889	13.37
358.253	13.34
358.618	13.31
358.982	13.27
359.346	13.23
359.71	13.19
360.075	13.1
360.439	13.05
360.803	13.02
361.167	12.99
361.531	12.98
361.895	12.92
362.259	12.88
362.623	12.84
362.987	12.79
363.351	12.77
363.714	12.72
364.078	12.66
364.442	12.62
364.806	12.58
365.169	12.53
365.533	12.47
365.896	12.4
366.26	12.33
366.623	12.26
366.987	12.17
367.35	12.11
367.714	12.08
368.077	12.02
368.44	11.94
368.803	11.85
369.167	11.79
369.53	11.73
369.893	11.65
370.256	11.53
370.619	11.45
370.982	11.38
371.345	11.29
371.708	11.23
372.071	11.15
372.434	11.06
372.797	10.97
373.159	10.88
373.522	10.81
373.885	10.72
374.247	10.64
374.61	10.55
374.973	10.45
375.335	10.35
375.698	10.26
376.06	10.16
376.423	10.09
376.785	9.97
377.147	9.86
377.51	9.79
377.872	9.71
378.234	9.64
378.596	9.56
378.958	9.49
379.321	9.41
379.683	9.33
380.045	9.25
380.407	9.18
380.769	9.11
381.13	9.03
381.492	8.96
381.854	8.88
382.216	8.82
382.578	8.74
382.939	8.68
383.301	8.62
383.663	8.56
384.024	8.5
384.386	8.45
384.747	8.4
385.109	8.34
385.47	8.28
385.832	8.21
386.193	8.16
386.554	8.11
386.916	8.06
387.277	8
387.638	7.97
387.999	7.92
388.36	7.87
388.721	7.83
389.082	7.78
389.443	7.73
389.804	7.68
390.165	7.61
390.526	7.55
390.887	7.48
391.248	7.43
391.609	7.39
391.969	7.34
392.33	7.29
392.691	7.22
393.051	7.17
393.412	7.13
393.772	7.07
394.133	7.02
394.493	6.96
394.854	6.9
395.214	6.82
395.574	6.76
395.935	6.7
396.295	6.62
396.655	6.56
397.015	6.49
397.376	6.42
397.736	6.37
398.096	6.31
398.456	6.27
398.816	6.21
399.176	6.15
399.535	6.1
399.895	6.05
400.255	6.01
400.615	5.96
400.975	5.91
401.334	5.86
401.694	5.82
402.054	5.79
402.413	5.76
402.773	5.73
403.132	5.69
403.492	5.65
403.851	5.63
404.211	5.61
404.57	5.59
404.929	5.58
405.288	5.56
405.648	5.53
406.007	5.51
406.366	5.49
406.725	5.47
407.084	5.43
407.443	5.42
407.802	5.39
408.161	5.38
408.52	5.36
408.879	5.34
409.238	5.33
409.596	5.3
409.955	5.28
410.314	5.27
410.673	5.25
411.031	5.23
411.39	5.2
411.748	5.19
412.107	5.17
412.465	5.15
412.824	5.12
413.182	5.11
413.54	5.09
413.899	5.07
414.257	5.05
414.615	5.04
414.974	5.02
415.332	5.02
415.69	5
416.048	4.98
416.406	4.98
416.764	4.96
417.122	4.96
417.48	4.95
417.838	4.93
418.195	4.92
418.553	4.92
418.911	4.92
419.269	4.91
419.626	4.9
419.984	4.89
420.342	4.88
420.699	4.87
421.057	4.86
421.414	4.84
421.772	4.84
422.129	4.83
422.486	4.82
422.844	4.8
423.201	4.79
423.558	4.78
423.915	4.76
424.273	4.75
424.63	4.73
424.987	4.72
425.344	4.71
425.701	4.69
426.058	4.68
426.415	4.65
426.772	4.63
427.128	4.61
427.485	4.59
427.842	4.58
428.199	4.56
428.555	4.55
428.912	4.53
429.269	4.51
429.625	4.49
429.982	4.47
430.338	4.46
430.695	4.46
431.051	4.45
431.407	4.45
431.764	4.44
432.12	4.43
432.476	4.43
432.832	4.42
433.189	4.42
433.545	4.42
433.901	4.42
434.257	4.42
434.613	4.42
434.969	4.43
435.325	4.43
435.681	4.43
436.036	4.43
436.392	4.45
436.748	4.46
437.104	4.46
437.459	4.46
437.815	4.47
438.171	4.47
438.526	4.47
438.882	4.47
439.237	4.47
439.593	4.48
439.948	4.48
440.304	4.48
440.659	4.48
441.014	4.48
441.369	4.48
441.725	4.48
442.08	4.48
442.435	4.48
442.79	4.48
443.145	4.48
443.5	4.47
443.855	4.47
444.21	4.46
444.565	4.46
444.92	4.45
445.275	4.44
445.629	4.43
445.984	4.43
446.339	4.42
446.693	4.41
447.048	4.41
447.403	4.4
447.757	4.39
448.112	4.38
448.466	4.37
448.82	4.36
449.175	4.35
449.529	4.34
449.883	4.32
450.238	4.3
450.592	4.29
450.946	4.28
451.3	4.27
451.654	4.25
452.008	4.25
452.362	4.23
452.716	4.23
453.07	4.22
453.424	4.21
453.778	4.21
454.132	4.2
454.486	4.19
454.839	4.19
455.193	4.19
455.547	4.19
455.9	4.2
456.254	4.21
456.607	4.22
456.961	4.23
457.314	4.24
457.668	4.24
458.021	4.25
458.375	4.26
458.728	4.26
459.081	4.27
459.434	4.28
459.787	4.28
460.141	4.27
460.494	4.28
460.847	4.28
461.2	4.29
461.553	4.29
461.906	4.3
462.259	4.3
462.611	4.3
462.964	4.31
463.317	4.31
463.67	4.32
464.022	4.32
464.375	4.32
464.728	4.33
465.08	4.33
465.433	4.34
465.785	4.34
466.138	4.35
466.49	4.35
466.843	4.36
467.195	4.38
467.547	4.39
467.899	4.4
468.252	4.42
468.604	4.42
468.956	4.44
469.308	4.45
469.66	4.46
470.012	4.47
470.364	4.48
470.716	4.49
471.068	4.49
471.42	4.5
471.772	4.51
472.123	4.51
472.475	4.53
472.827	4.53
473.178	4.54
473.53	4.54
473.882	4.55
474.233	4.57
474.585	4.57
474.936	4.57
475.288	4.57
475.639	4.57
475.99	4.57
476.342	4.58
476.693	4.57
477.044	4.57
477.395	4.56
477.746	4.56
478.097	4.57
478.448	4.59
478.8	4.67
479.15	4.79
479.501	4.93
479.852	5.09
480.203	5.26
480.554	5.44
480.905	5.62
481.255	5.79
481.606	5.97
481.957	6.15
482.307	6.31
482.658	6.46
483.009	6.59
483.359	6.7
483.709	6.79
484.06	6.88
484.41	6.97
484.761	7.05
485.111	7.13
485.461	7.21
485.811	7.28
486.162	7.31
486.512	7.3
486.862	7.26
487.212	7.19
487.562	7.11
487.912	7.01
488.262	6.9
488.612	6.78
488.961	6.66
489.311	6.52
489.661	6.37
490.011	6.23
490.36	6.09
490.71	5.94
491.06	5.79
491.409	5.63
491.759	5.51
492.108	5.41
492.458	5.33
492.807	5.25
493.157	5.18
493.506	5.11
493.855	5.04
494.204	4.99
494.554	4.94
494.903	4.89
495.252	4.85
495.601	4.81
495.95	4.77
496.299	4.75
496.648	4.72
496.997	4.71
497.346	4.72
497.695	4.75
498.043	4.81
498.392	4.89
498.741	4.99
499.09	5.06
499.438	5.11
499.787	5.15
500.135	5.19
500.484	5.23
500.832	5.28
501.181	5.35
501.529	5.4
501.878	5.45
502.226	5.5
502.574	5.56
502.923	5.62
503.271	5.69
503.619	5.76
503.967	5.84
504.315	5.92
504.663	5.99
505.011	6.07
505.359	6.16
505.707	6.24
506.055	6.32
506.403	6.41
506.751	6.5
507.098	6.59
507.446	6.68
507.794	6.78
508.141	6.86
508.489	6.94
508.837	7.03
509.184	7.11
509.531	7.2
509.879	7.29
510.226	7.37
510.574	7.46
510.921	7.54
511.268	7.63
511.616	7.71
511.963	7.81
512.31	7.9
512.657	8
513.004	8.09
513.351	8.2
513.698	8.31
514.045	8.42
514.392	8.54
514.739	8.65
515.086	8.76
515.432	8.88
515.779	8.99
516.126	9.1
516.473	9.21
516.819	9.32
517.166	9.42
517.512	9.51
517.859	9.6
518.205	9.69
518.552	9.78
518.898	9.87
519.245	9.95
519.591	10.02
519.937	10.11
520.283	10.2
520.629	10.3
520.976	10.38
521.322	10.49
521.668	10.59
522.014	10.7
522.36	10.81
522.706	10.94
523.052	11.12
523.398	11.36
523.743	11.67
524.089	12.03
524.435	12.43
524.781	12.85
525.126	13.26
525.472	13.67
525.817	14.07
526.163	14.44
526.509	14.8
526.854	15.11
527.199	15.37
527.545	15.57
527.89	15.74
528.235	15.91
528.581	16.07
528.926	16.23
529.271	16.39
529.616	16.54
529.961	16.68
530.306	16.82
530.651	16.89
530.996	16.9
531.341	16.86
531.686	16.78
532.031	16.64
532.376	16.44
532.721	16.23
533.065	16
533.41	15.82
533.755	15.65
534.099	15.54
534.444	15.5
534.788	15.51
535.133	15.56
535.477	15.62
535.822	15.69
536.166	15.8
536.51	15.93
536.855	16.09
537.199	16.27
537.543	16.47
537.887	16.69
538.231	16.95
538.576	17.21
538.92	17.49
539.264	17.81
539.608	18.14
539.951	18.46
540.295	18.77
540.639	18.99
540.983	19.19
541.327	19.35
541.671	19.5
542.014	19.69
542.358	19.87
542.701	20.05
543.045	20.22
543.389	20.39
543.732	20.55
544.075	20.72
544.419	20.88
544.762	21.02
545.105	21.15
545.449	21.26
545.792	21.35
546.135	21.44
546.478	21.54
546.821	21.68
547.165	21.88
547.508	22.11
547.851	22.4
548.194	22.74
548.536	23.09
548.879	23.4
549.222	23.65
549.565	23.91
549.908	24.16
550.25	24.43
550.593	24.69
550.936	24.96
551.278	25.21
551.621	25.47
551.963	25.75
552.306	26
552.648	26.29
552.991	26.53
553.333	26.81
553.675	27.08
554.017	27.36
554.36	27.63
554.702	27.88
555.044	28.13
555.386	28.41
555.728	28.69
556.07	28.96
556.412	29.22
556.754	29.49
557.096	29.78
557.438	30.06
557.78	30.34
558.121	30.62
558.463	30.91
558.805	31.19
559.147	31.47
559.488	31.76
559.83	32.04
560.171	32.37
560.513	32.67
560.854	32.97
561.196	33.28
561.537	33.6
561.878	33.92
562.22	34.23
562.561	34.54
562.902	34.83
563.243	35.14
563.584	35.46
563.925	35.75
564.266	36.04
564.607	36.33
564.948	36.62
565.289	36.89
565.63	37.16
565.971	37.42
566.312	37.69
566.653	37.98
566.993	38.23
567.334	38.49
567.675	38.78
568.015	39.04
568.356	39.33
568.696	39.58
569.037	39.85
569.377	40.13
569.718	40.39
570.058	40.66
570.398	40.93
570.739	41.17
571.079	41.41
571.419	41.64
571.759	41.87
572.099	42.1
572.439	42.31
572.779	42.54
573.119	42.78
573.459	42.98
573.799	43.17
574.139	43.37
574.479	43.54
574.819	43.69
575.158	43.85
575.498	44
575.838	44.18
576.177	44.33
576.517	44.47
576.856	44.61
577.196	44.75
577.535	44.87
577.875	45
578.214	45.13
578.553	45.29
578.893	45.44
579.232	45.59
579.571	45.72
579.91	45.85
580.25	46.01
580.589	46.15
580.928	46.3
581.267	46.46
581.606	46.61
581.945	46.78
582.283	46.94
582.622	47.1
582.961	47.24
583.3	47.41
583.639	47.56
583.977	47.76
584.316	47.95
584.654	48.14
584.993	48.31
585.332	48.51
585.67	48.68
586.008	48.86
586.347	49.04
586.685	49.24
587.024	49.41
587.362	49.58
587.7	49.74
588.038	49.89
588.376	50.06
588.715	50.21
589.053	50.36
589.391	50.51
589.729	50.68
590.067	50.82
590.404	50.98
590.742	51.15
591.08	51.27
591.418	51.4
591.756	51.55
592.093	51.73
592.431	51.87
592.769	52.01
593.106	52.14
593.444	52.25
593.781	52.38
594.119	52.51
594.456	52.61
594.793	52.74
595.131	52.85
595.468	52.94
595.805	53.04
596.143	53.13
596.48	53.22
596.817	53.28
597.154	53.35
597.491	53.42
597.828	53.48
598.165	53.53
598.502	53.61
598.839	53.68
599.176	53.71
599.512	53.82
599.849	53.93
600.186	54.04
600.523	54.16
600.859	54.28
601.196	54.39
601.532	54.5
601.869	54.62
602.205	54.71
602.542	54.82
602.878	54.92
603.215	55.01
603.551	55.09
603.887	55.18
604.223	55.28
604.56	55.35
604.896	55.43
605.232	55.53
605.568	55.61
605.904	55.67
606.24	55.78
606.576	55.85
606.912	55.88
607.248	55.9
607.583	55.92
607.919	55.95
608.255	55.98
608.591	56.03
608.926	56.04
609.262	56.05
609.597	56.06
609.933	56.07
610.268	56.08
610.604	56.09
610.939	56.11
611.275	56.11
611.61	56.13
611.945	56.15
612.281	56.19
612.616	56.21
612.951	56.21
613.286	56.22
613.621	56.22
613.956	56.24
614.291	56.29
614.626	56.32
614.961	56.33
615.296	56.35
615.631	56.36
615.966	56.37
616.3	56.43
616.635	56.49
616.97	56.52
617.304	56.58
617.639	56.63
617.973	56.64
618.308	56.68
618.642	56.74
618.977	56.77
619.311	56.78
619.646	56.8
619.98	56.85
620.314	56.9
620.648	56.94
620.983	56.97
621.317	57
621.651	57.07
621.985	57.12
622.319	57.17
622.653	57.24
622.987	57.31
623.321	57.4
623.655	57.45
623.988	57.53
624.322	57.63
624.656	57.68
624.99	57.76
625.323	57.81
625.657	57.85
625.99	57.93
626.324	57.98
626.657	58.04
626.991	58.07
627.324	58.09
627.658	58.12
627.991	58.17
628.324	58.19
628.657	58.18
628.991	58.21
629.324	58.24
629.657	58.24
629.99	58.25
630.323	58.26
630.656	58.28
630.989	58.32
631.322	58.32
631.655	58.37
631.987	58.36
632.32	58.41
632.653	58.43
632.986	58.45
633.318	58.43
633.651	58.44
633.984	58.48
634.316	58.53
634.649	58.53
634.981	58.55
635.313	58.58
635.646	58.64
635.978	58.64
636.31	58.65
636.643	58.69
636.975	58.68
637.307	58.7
637.639	58.7
637.971	58.69
638.303	58.65
638.635	58.63
638.967	58.65
639.299	58.63
639.631	58.63
639.963	58.66
640.295	58.7
640.626	58.73
640.958	58.74
641.29	58.76
641.621	58.8
641.953	58.82
642.285	58.87
642.616	58.87
642.948	58.88
643.279	58.91
643.61	58.93
643.942	59
644.273	59.04
644.604	59.1
644.936	59.15
645.267	59.19
645.598	59.23
645.929	59.27
646.26	59.35
646.591	59.39
646.922	59.4
647.253	59.47
647.584	59.5
647.915	59.53
648.245	59.55
648.576	59.58
648.907	59.66
649.238	59.68
649.568	59.7
649.899	59.78
650.229	59.81
650.56	59.87
650.89	59.89
651.221	59.92
651.551	59.96
651.882	59.99
652.212	60.01
652.542	60.04
652.872	60.09
653.203	60.1
653.533	60.13
653.863	60.16
654.193	60.15
654.523	60.19
654.853	60.24
655.183	60.28
655.513	60.33
655.843	60.35
656.172	60.43
656.502	60.49
656.832	60.49
657.162	60.55
657.491	60.57
657.821	60.59
658.15	60.61
658.48	60.61
658.809	60.61
659.139	60.65
659.468	60.65
659.798	60.66
660.127	60.69
660.456	60.72
660.785	60.71
661.115	60.75
661.444	60.74
661.773	60.72
662.102	60.7
662.431	60.69
662.76	60.67
663.089	60.63
663.418	60.61
663.747	60.63
664.076	60.6
664.404	60.59
664.733	60.62
665.062	60.65
665.39	60.66
665.719	60.69
666.048	60.72
666.376	60.78
666.705	60.77
667.033	60.74
667.362	60.76
