Data from UWBM122617_Reflection_00002.txt Node
Date: Sun May 02 12:16:35 EDT 2021
User: vgr7
Spectrometer: USB2G7710
Scans to average: 10
Trigger mode: 4
Integration Time (sec): 1.000000E-1
Electric dark correction enabled: true
Boxcar width: 10
XAxis mode: Wavelengths
Number of Pixels in Spectrum: 2048
>>>>>Begin Spectral Data<<<<<
177.721	580
178.105	400
178.488	77.03
178.871	206.33
179.254	-50
179.636	187.27
180.019	6.25
180.402	125
180.785	18.95
181.168	-16.29
181.55	-14.18
181.933	-19.62
182.316	-29.2
182.698	-47.89
183.081	-10.66
183.463	-5
183.846	27.82
184.228	22.41
184.611	28.74
184.993	31.7
185.376	29.82
185.758	25.25
186.14	12.25
186.522	14.58
186.904	10.48
187.287	11.84
187.669	16.39
188.051	8.62
188.433	10.17
188.815	12.76
189.197	14.84
189.579	18.5
189.961	21.74
190.342	17.99
190.724	18.2
191.106	11.45
191.488	16.71
191.869	14.08
192.251	13.59
192.633	7.56
193.014	4.99
193.396	5.09
193.777	6.36
194.159	8.05
194.54	4.94
194.922	4.69
195.303	9.98
195.684	8.8
196.065	12.45
196.447	7.75
196.828	6.06
197.209	4.89
197.59	0.33
197.971	-3.88
198.352	-1.55
198.733	3.22
199.114	4.3
199.495	-1.73
199.876	-3.55
200.257	-3.6
200.638	1.82
201.018	1.6
201.399	0.49
201.78	0.49
202.16	0.12
202.541	2.64
202.922	1.93
203.302	-2.89
203.683	-1.37
204.063	-5.78
204.444	-4.08
204.824	-1.97
205.204	-2.3
205.585	-1.64
205.965	-5.43
206.345	-2.97
206.725	-11.41
207.106	-6.94
207.486	-3.15
207.866	2.02
208.246	2.53
208.626	2.53
209.006	1.99
209.386	1.14
209.766	-0.4
210.145	0.8
210.525	-1.6
210.905	2.84
211.285	3.67
211.664	1.61
212.044	4.49
212.424	9.34
212.803	8.07
213.183	11.83
213.562	11.07
213.942	11.92
214.321	6.66
214.701	6.37
215.08	6.81
215.459	6.81
215.838	3.32
216.218	2.33
216.597	-0.05
216.976	-3.44
217.355	-3.51
217.734	-2.37
218.113	-2.22
218.492	1.41
218.871	0.1
219.25	1.32
219.629	2.36
220.008	1.14
220.387	-2.8
220.766	-6.73
221.144	-10.25
221.523	-8.84
221.902	-7.29
222.28	-3.56
222.659	-1.23
223.037	-1.21
223.416	-0.94
223.794	-1.28
224.173	-2.26
224.551	-2.78
224.929	-0.76
225.308	1.49
225.686	1.9
226.064	1.12
226.442	-0.1
226.821	-0.53
227.199	-1.26
227.577	-1.96
227.955	-0.59
228.333	-0.32
228.711	1.01
229.089	1.67
229.467	1.68
229.845	2.52
230.222	2.26
230.6	2.92
230.978	3.07
231.356	2.59
231.733	3.73
232.111	4.46
232.488	5.44
232.866	5.48
233.243	4.44
233.621	4.95
233.998	4.78
234.376	5.29
234.753	5.72
235.13	5.28
235.508	6.32
235.885	6.24
236.262	6.37
236.639	6.35
237.016	6.51
237.393	6.3
237.77	6.14
238.147	6.1
238.524	6.41
238.901	6.09
239.278	5.95
239.655	5.81
240.032	5.58
240.409	5.31
240.785	5.3
241.162	5.4
241.539	5.35
241.915	5.38
242.292	5.34
242.668	5.24
243.045	5.28
243.421	5.17
243.798	5.28
244.174	5.26
244.551	5.14
244.927	5.1
245.303	5.14
245.679	5.15
246.056	5.08
246.432	4.97
246.808	5.01
247.184	4.99
247.56	4.93
247.936	4.95
248.312	4.98
248.688	4.95
249.064	4.91
249.44	4.86
249.815	4.85
250.191	4.8
250.567	4.77
250.943	4.79
251.318	4.78
251.694	4.65
252.069	4.57
252.445	4.67
252.82	4.59
253.196	4.55
253.571	4.42
253.947	4.53
254.322	4.53
254.697	4.56
255.073	4.67
255.448	4.67
255.823	4.61
256.198	4.49
256.573	4.43
256.948	4.38
257.323	4.45
257.698	4.45
258.073	4.47
258.448	4.49
258.823	4.48
259.198	4.45
259.573	4.46
259.948	4.51
260.322	4.46
260.697	4.48
261.072	4.47
261.446	4.46
261.821	4.4
262.195	4.34
262.57	4.33
262.944	4.24
263.319	4.24
263.693	4.28
264.067	4.3
264.442	4.33
264.816	4.35
265.19	4.27
265.564	4.27
265.938	4.24
266.313	4.18
266.687	4.12
267.061	4.16
267.435	4.09
267.809	4.03
268.183	4.02
268.556	4.04
268.93	4.05
269.304	4.04
269.678	4.01
270.051	4.05
270.425	4.02
270.799	4.01
271.172	4
271.546	4.01
271.919	4.06
272.293	4.03
272.666	4.02
273.04	4.04
273.413	3.98
273.787	3.94
274.16	3.99
274.533	4.02
274.906	3.99
275.279	4.03
275.653	4.01
276.026	3.99
276.399	3.93
276.772	3.94
277.145	4.01
277.518	4.08
277.891	4.15
278.263	4.13
278.636	4.21
279.009	4.2
279.382	4.16
279.755	4.12
280.127	4.15
280.5	4.18
280.872	4.21
281.245	4.3
281.617	4.33
281.99	4.33
282.362	4.31
282.735	4.3
283.107	4.34
283.479	4.38
283.852	4.4
284.224	4.44
284.596	4.42
284.968	4.42
285.34	4.4
285.713	4.39
286.085	4.39
286.457	4.39
286.829	4.4
287.201	4.42
287.572	4.43
287.944	4.44
288.316	4.46
288.688	4.48
289.06	4.48
289.431	4.47
289.803	4.47
290.175	4.47
290.546	4.47
290.918	4.49
291.289	4.51
291.661	4.54
292.032	4.49
292.403	4.52
292.775	4.54
293.146	4.55
293.517	4.54
293.889	4.58
294.26	4.55
294.631	4.54
295.002	4.54
295.373	4.59
295.744	4.6
296.115	4.6
296.486	4.55
296.857	4.55
297.228	4.59
297.599	4.63
297.97	4.65
298.34	4.68
298.711	4.67
299.082	4.65
299.452	4.63
299.823	4.69
300.194	4.69
300.564	4.68
300.935	4.69
301.305	4.69
301.676	4.68
302.046	4.69
302.416	4.72
302.787	4.79
303.157	4.78
303.527	4.8
303.897	4.79
304.267	4.82
304.637	4.8
305.008	4.82
305.378	4.8
305.748	4.82
306.117	4.84
306.487	4.84
306.857	4.85
307.227	4.86
307.597	4.82
307.967	4.8
308.336	4.8
308.706	4.83
309.076	4.85
309.445	4.86
309.815	4.85
310.184	4.87
310.554	4.82
310.923	4.79
311.293	4.77
311.662	4.77
312.031	4.76
312.401	4.8
312.77	4.79
313.139	4.82
313.508	4.81
313.877	4.81
314.246	4.8
314.616	4.83
314.985	4.83
315.353	4.86
315.722	4.9
316.091	4.88
316.46	4.86
316.829	4.86
317.198	4.87
317.567	4.91
317.935	4.86
318.304	4.91
318.672	4.96
319.041	4.99
319.41	5.02
319.778	5.06
320.147	5.08
320.515	5.08
320.883	5.05
321.252	5.06
321.62	5.01
321.988	5.04
322.357	5.02
322.725	5.03
323.093	5.02
323.461	4.98
323.829	5.02
324.197	4.98
324.565	4.99
324.933	4.98
325.301	4.98
325.669	5.02
326.037	5.01
326.405	4.98
326.772	4.98
327.14	4.96
327.508	4.92
327.875	4.91
328.243	4.89
328.61	4.88
328.978	4.9
329.346	4.92
329.713	4.86
330.08	4.89
330.448	4.89
330.815	4.91
331.182	4.93
331.55	4.93
331.917	4.97
332.284	4.95
332.651	4.96
333.018	4.94
333.385	4.93
333.752	4.92
334.119	4.92
334.486	4.91
334.853	4.91
335.22	4.92
335.587	4.9
335.954	4.94
336.32	4.93
336.687	4.91
337.054	4.9
337.42	4.92
337.787	4.92
338.153	4.93
338.52	4.93
338.886	4.95
339.253	4.94
339.619	4.95
339.986	4.98
340.352	4.96
340.718	5
341.084	4.99
341.451	4.96
341.817	4.96
342.183	4.96
342.549	4.97
342.915	4.97
343.281	5.02
343.647	5.02
344.013	5.03
344.379	5.03
344.745	5.04
345.11	5.04
345.476	5.05
345.842	5.04
346.208	5.04
346.573	5
346.939	5
347.304	4.98
347.67	4.96
348.035	4.98
348.401	4.95
348.766	4.98
349.132	5.01
349.497	5.01
349.862	5.01
350.228	5.02
350.593	5.01
350.958	4.99
351.323	4.97
351.688	4.96
352.053	4.94
352.418	4.95
352.783	4.96
353.148	4.94
353.513	4.95
353.878	4.97
354.243	4.98
354.608	5
354.972	5
355.337	4.99
355.702	4.98
356.066	5
356.431	4.97
356.795	4.97
357.16	4.95
357.524	4.97
357.889	4.96
358.253	4.98
358.618	4.98
358.982	5
359.346	5.01
359.71	5.01
360.075	5
360.439	5.01
360.803	5
361.167	4.99
361.531	4.97
361.895	4.98
362.259	4.97
362.623	4.98
362.987	5
363.351	5.01
363.714	5.01
364.078	5.01
364.442	5.01
364.806	5.01
365.169	5
365.533	5
365.896	4.99
366.26	4.98
366.623	4.96
366.987	4.96
367.35	4.97
367.714	4.97
368.077	4.97
368.44	4.98
368.803	4.97
369.167	4.97
369.53	4.96
369.893	4.97
370.256	4.96
370.619	4.95
370.982	4.94
371.345	4.93
371.708	4.94
372.071	4.94
372.434	4.95
372.797	4.93
373.159	4.94
373.522	4.94
373.885	4.95
374.247	4.95
374.61	4.95
374.973	4.93
375.335	4.93
375.698	4.94
376.06	4.94
376.423	4.95
376.785	4.97
377.147	4.96
377.51	4.99
377.872	4.99
378.234	4.98
378.596	4.98
378.958	4.99
379.321	5.01
379.683	5.01
380.045	5.01
380.407	5.02
380.769	5.02
381.13	5.03
381.492	5.02
381.854	5.01
382.216	5.03
382.578	5.04
382.939	5.05
383.301	5.04
383.663	5.04
384.024	5.03
384.386	5.02
384.747	5.02
385.109	5.01
385.47	5.02
385.832	5.04
386.193	5.04
386.554	5.04
386.916	5.04
387.277	5.04
387.638	5.04
387.999	5.04
388.36	5.04
388.721	5.04
389.082	5.06
389.443	5.06
389.804	5.06
390.165	5.06
390.526	5.07
390.887	5.06
391.248	5.07
391.609	5.09
391.969	5.1
392.33	5.11
392.691	5.11
393.051	5.11
393.412	5.11
393.772	5.11
394.133	5.11
394.493	5.1
394.854	5.11
395.214	5.11
395.574	5.12
395.935	5.13
396.295	5.13
396.655	5.12
397.015	5.14
397.376	5.14
397.736	5.14
398.096	5.14
398.456	5.16
398.816	5.15
399.176	5.15
399.535	5.15
399.895	5.15
400.255	5.16
400.615	5.15
400.975	5.16
401.334	5.15
401.694	5.15
402.054	5.15
402.413	5.15
402.773	5.16
403.132	5.16
403.492	5.15
403.851	5.15
404.211	5.16
404.57	5.16
404.929	5.16
405.288	5.16
405.648	5.16
406.007	5.16
406.366	5.15
406.725	5.15
407.084	5.15
407.443	5.15
407.802	5.15
408.161	5.16
408.52	5.17
408.879	5.17
409.238	5.17
409.596	5.17
409.955	5.15
410.314	5.15
410.673	5.15
411.031	5.16
411.39	5.17
411.748	5.16
412.107	5.15
412.465	5.15
412.824	5.16
413.182	5.16
413.54	5.17
413.899	5.18
414.257	5.18
414.615	5.18
414.974	5.18
415.332	5.18
415.69	5.19
416.048	5.19
416.406	5.21
416.764	5.22
417.122	5.24
417.48	5.26
417.838	5.27
418.195	5.28
418.553	5.28
418.911	5.3
419.269	5.31
419.626	5.33
419.984	5.34
420.342	5.35
420.699	5.36
421.057	5.37
421.414	5.38
421.772	5.38
422.129	5.39
422.486	5.4
422.844	5.41
423.201	5.41
423.558	5.41
423.915	5.41
424.273	5.41
424.63	5.41
424.987	5.4
425.344	5.4
425.701	5.4
426.058	5.4
426.415	5.39
426.772	5.38
427.128	5.38
427.485	5.37
427.842	5.38
428.199	5.37
428.555	5.36
428.912	5.35
429.269	5.35
429.625	5.35
429.982	5.34
430.338	5.34
430.695	5.34
431.051	5.34
431.407	5.34
431.764	5.34
432.12	5.34
432.476	5.34
432.832	5.34
433.189	5.34
433.545	5.34
433.901	5.34
434.257	5.34
434.613	5.34
434.969	5.34
435.325	5.34
435.681	5.35
436.036	5.35
436.392	5.36
436.748	5.37
437.104	5.38
437.459	5.38
437.815	5.4
438.171	5.4
438.526	5.4
438.882	5.41
439.237	5.42
439.593	5.43
439.948	5.43
440.304	5.44
440.659	5.44
441.014	5.45
441.369	5.46
441.725	5.47
442.08	5.47
442.435	5.48
442.79	5.48
443.145	5.49
443.5	5.49
443.855	5.5
444.21	5.5
444.565	5.5
444.92	5.5
445.275	5.5
445.629	5.5
445.984	5.5
446.339	5.51
446.693	5.5
447.048	5.5
447.403	5.5
447.757	5.5
448.112	5.5
448.466	5.5
448.82	5.5
449.175	5.5
449.529	5.49
449.883	5.49
450.238	5.48
450.592	5.47
450.946	5.47
451.3	5.46
451.654	5.46
452.008	5.46
452.362	5.46
452.716	5.45
453.07	5.46
453.424	5.45
453.778	5.45
454.132	5.45
454.486	5.45
454.839	5.45
455.193	5.45
455.547	5.46
455.9	5.47
456.254	5.47
456.607	5.48
456.961	5.49
457.314	5.51
457.668	5.51
458.021	5.51
458.375	5.52
458.728	5.52
459.081	5.52
459.434	5.52
459.787	5.52
460.141	5.51
460.494	5.51
460.847	5.51
461.2	5.51
461.553	5.52
461.906	5.51
462.259	5.52
462.611	5.51
462.964	5.51
463.317	5.51
463.67	5.5
464.022	5.49
464.375	5.48
464.728	5.47
465.08	5.48
465.433	5.48
465.785	5.47
466.138	5.47
466.49	5.47
466.843	5.46
467.195	5.47
467.547	5.48
467.899	5.48
468.252	5.49
468.604	5.49
468.956	5.48
469.308	5.49
469.66	5.48
470.012	5.49
470.364	5.48
470.716	5.48
471.068	5.49
471.42	5.5
471.772	5.49
472.123	5.49
472.475	5.49
472.827	5.5
473.178	5.5
473.53	5.5
473.882	5.5
474.233	5.51
474.585	5.52
474.936	5.52
475.288	5.51
475.639	5.51
475.99	5.52
476.342	5.53
476.693	5.53
477.044	5.54
477.395	5.54
477.746	5.55
478.097	5.56
478.448	5.6
478.8	5.69
479.15	5.85
479.501	6.04
479.852	6.25
480.203	6.47
480.554	6.71
480.905	6.94
481.255	7.17
481.606	7.4
481.957	7.63
482.307	7.85
482.658	8.04
483.009	8.22
483.359	8.36
483.709	8.49
484.06	8.62
484.41	8.73
484.761	8.83
485.111	8.94
485.461	9.05
485.811	9.14
486.162	9.19
486.512	9.18
486.862	9.13
487.212	9.05
487.562	8.95
487.912	8.83
488.262	8.69
488.612	8.54
488.961	8.38
489.311	8.2
489.661	8.01
490.011	7.83
490.36	7.65
490.71	7.45
491.06	7.25
491.409	7.05
491.759	6.88
492.108	6.75
492.458	6.62
492.807	6.51
493.157	6.4
493.506	6.3
493.855	6.2
494.204	6.1
494.554	6.01
494.903	5.93
495.252	5.84
495.601	5.76
495.95	5.69
496.299	5.62
496.648	5.56
496.997	5.51
497.346	5.49
497.695	5.48
498.043	5.52
498.392	5.57
498.741	5.63
499.09	5.66
499.438	5.68
499.787	5.68
500.135	5.67
500.484	5.68
500.832	5.68
501.181	5.68
501.529	5.68
501.878	5.68
502.226	5.67
502.574	5.66
502.923	5.66
503.271	5.66
503.619	5.67
503.967	5.67
504.315	5.67
504.663	5.67
505.011	5.66
505.359	5.66
505.707	5.67
506.055	5.67
506.403	5.69
506.751	5.69
507.098	5.7
507.446	5.71
507.794	5.71
508.141	5.71
508.489	5.71
508.837	5.72
509.184	5.73
509.531	5.73
509.879	5.74
510.226	5.75
510.574	5.75
510.921	5.75
511.268	5.76
511.616	5.75
511.963	5.76
512.31	5.77
512.657	5.78
513.004	5.78
513.351	5.78
513.698	5.78
514.045	5.78
514.392	5.79
514.739	5.8
515.086	5.81
515.432	5.82
515.779	5.83
516.126	5.84
516.473	5.85
516.819	5.86
517.166	5.86
517.512	5.87
517.859	5.87
518.205	5.88
518.552	5.88
518.898	5.89
519.245	5.89
519.591	5.89
519.937	5.88
520.283	5.88
520.629	5.89
520.976	5.9
521.322	5.9
521.668	5.9
522.014	5.9
522.36	5.91
522.706	5.91
523.052	5.93
523.398	5.99
523.743	6.07
524.089	6.18
524.435	6.31
524.781	6.45
525.126	6.58
525.472	6.73
525.817	6.87
526.163	7
526.509	7.12
526.854	7.21
527.199	7.29
527.545	7.34
527.89	7.38
528.235	7.4
528.581	7.43
528.926	7.45
529.271	7.48
529.616	7.49
529.961	7.52
530.306	7.52
530.651	7.51
530.996	7.45
531.341	7.38
531.686	7.28
532.031	7.16
532.376	7.03
532.721	6.87
533.065	6.7
533.41	6.56
533.755	6.43
534.099	6.32
534.444	6.24
534.788	6.18
535.133	6.13
535.477	6.09
535.822	6.06
536.166	6.03
536.51	6
536.855	5.98
537.199	5.96
537.543	5.96
537.887	5.96
538.231	5.97
538.576	5.99
538.92	6.02
539.264	6.05
539.608	6.09
539.951	6.13
540.295	6.17
540.639	6.19
540.983	6.19
541.327	6.19
541.671	6.18
542.014	6.18
542.358	6.18
542.701	6.19
543.045	6.19
543.389	6.19
543.732	6.19
544.075	6.19
544.419	6.18
544.762	6.16
545.105	6.14
545.449	6.11
545.792	6.08
546.135	6.04
546.478	6.01
546.821	5.98
547.165	5.97
547.508	5.97
547.851	5.98
548.194	5.99
548.536	6
548.879	6.03
549.222	6.03
549.565	6.02
549.908	6.02
550.25	6.01
550.593	6.02
550.936	6.02
551.278	6.02
551.621	6.02
551.963	6.02
552.306	6.02
552.648	6.01
552.991	6
553.333	6
553.675	5.99
554.017	5.99
554.36	5.99
554.702	5.99
555.044	5.99
555.386	5.99
555.728	5.99
556.07	5.99
556.412	5.98
556.754	5.99
557.096	5.98
557.438	5.96
557.78	5.96
558.121	5.95
558.463	5.94
558.805	5.95
559.147	5.95
559.488	5.95
559.83	5.98
560.171	5.98
560.513	5.98
560.854	5.99
561.196	5.99
561.537	6
561.878	6.01
562.22	6.01
562.561	6.02
562.902	6.02
563.243	6.03
563.584	6.03
563.925	6.04
564.266	6.04
564.607	6.06
564.948	6.06
565.289	6.07
565.63	6.08
565.971	6.08
566.312	6.08
566.653	6.09
566.993	6.08
567.334	6.07
567.675	6.1
568.015	6.1
568.356	6.11
568.696	6.11
569.037	6.12
569.377	6.12
569.718	6.12
570.058	6.13
570.398	6.14
570.739	6.15
571.079	6.15
571.419	6.16
571.759	6.16
572.099	6.17
572.439	6.17
572.779	6.17
573.119	6.18
573.459	6.18
573.799	6.19
574.139	6.2
574.479	6.21
574.819	6.2
575.158	6.2
575.498	6.21
575.838	6.21
576.177	6.21
576.517	6.2
576.856	6.2
577.196	6.2
577.535	6.2
577.875	6.2
578.214	6.2
578.553	6.21
578.893	6.2
579.232	6.19
579.571	6.19
579.91	6.19
580.25	6.19
580.589	6.18
580.928	6.18
581.267	6.17
581.606	6.17
581.945	6.17
582.283	6.18
582.622	6.18
582.961	6.18
583.3	6.19
583.639	6.2
583.977	6.2
584.316	6.21
584.654	6.22
584.993	6.22
585.332	6.21
585.67	6.21
586.008	6.23
586.347	6.24
586.685	6.24
587.024	6.23
587.362	6.23
587.7	6.23
588.038	6.24
588.376	6.24
588.715	6.24
589.053	6.23
589.391	6.22
589.729	6.22
590.067	6.23
590.404	6.23
590.742	6.23
591.08	6.24
591.418	6.24
591.756	6.25
592.093	6.26
592.431	6.26
592.769	6.26
593.106	6.26
593.444	6.26
593.781	6.27
594.119	6.28
594.456	6.29
594.793	6.29
595.131	6.3
595.468	6.32
595.805	6.32
596.143	6.33
596.48	6.32
596.817	6.33
597.154	6.33
597.491	6.32
597.828	6.32
598.165	6.32
598.502	6.32
598.839	6.32
599.176	6.31
599.512	6.33
599.849	6.33
600.186	6.34
600.523	6.33
600.859	6.33
601.196	6.34
601.532	6.35
601.869	6.36
602.205	6.36
602.542	6.37
602.878	6.39
603.215	6.4
603.551	6.41
603.887	6.41
604.223	6.43
604.56	6.44
604.896	6.44
605.232	6.45
605.568	6.45
605.904	6.45
606.24	6.47
606.576	6.48
606.912	6.49
607.248	6.49
607.583	6.5
607.919	6.5
608.255	6.5
608.591	6.5
608.926	6.5
609.262	6.5
609.597	6.5
609.933	6.49
610.268	6.49
610.604	6.5
610.939	6.5
611.275	6.5
611.61	6.5
611.945	6.51
612.281	6.51
612.616	6.52
612.951	6.53
613.286	6.52
613.621	6.5
613.956	6.5
614.291	6.51
614.626	6.5
614.961	6.51
615.296	6.52
615.631	6.52
615.966	6.52
616.3	6.52
616.635	6.53
616.97	6.54
617.304	6.54
617.639	6.53
617.973	6.52
618.308	6.53
618.642	6.51
618.977	6.51
619.311	6.5
619.646	6.51
619.98	6.51
620.314	6.5
620.648	6.52
620.983	6.52
621.317	6.52
621.651	6.53
621.985	6.52
622.319	6.52
622.653	6.51
622.987	6.51
623.321	6.51
623.655	6.51
623.988	6.52
624.322	6.51
624.656	6.52
624.99	6.54
625.323	6.54
625.657	6.56
625.99	6.57
626.324	6.58
626.657	6.59
626.991	6.59
627.324	6.58
627.658	6.59
627.991	6.59
628.324	6.59
628.657	6.59
628.991	6.61
629.324	6.63
629.657	6.65
629.99	6.66
630.323	6.67
630.656	6.67
630.989	6.67
631.322	6.69
631.655	6.7
631.987	6.71
632.32	6.71
632.653	6.72
632.986	6.71
633.318	6.73
633.651	6.72
633.984	6.74
634.316	6.75
634.649	6.75
634.981	6.77
635.313	6.76
635.646	6.76
635.978	6.77
636.31	6.76
636.643	6.75
636.975	6.76
637.307	6.76
637.639	6.76
637.971	6.75
638.303	6.75
638.635	6.74
638.967	6.74
639.299	6.74
639.631	6.75
639.963	6.76
640.295	6.73
640.626	6.76
640.958	6.77
641.29	6.76
641.621	6.77
641.953	6.78
642.285	6.78
642.616	6.78
642.948	6.77
643.279	6.77
643.61	6.77
643.942	6.78
644.273	6.78
644.604	6.78
644.936	6.78
645.267	6.78
645.598	6.79
645.929	6.79
646.26	6.79
646.591	6.79
646.922	6.8
647.253	6.81
647.584	6.78
647.915	6.78
648.245	6.8
648.576	6.8
648.907	6.79
649.238	6.81
649.568	6.8
649.899	6.81
650.229	6.82
650.56	6.84
650.89	6.82
651.221	6.84
651.551	6.86
651.882	6.87
652.212	6.86
652.542	6.86
652.872	6.87
653.203	6.88
653.533	6.88
653.863	6.86
654.193	6.85
654.523	6.86
654.853	6.86
655.183	6.86
655.513	6.88
655.843	6.9
656.172	6.9
656.502	6.92
656.832	6.93
657.162	6.94
657.491	6.95
657.821	6.96
658.15	6.94
658.48	6.96
658.809	6.96
659.139	6.98
659.468	7
659.798	7.01
660.127	7.02
660.456	7.03
660.785	7.04
661.115	7.06
661.444	7.08
661.773	7.08
662.102	7.07
662.431	7.08
662.76	7.09
663.089	7.09
663.418	7.09
663.747	7.07
664.076	7.09
664.404	7.08
664.733	7.1
665.062	7.12
665.39	7.09
665.719	7.1
666.048	7.09
666.376	7.11
666.705	7.11
667.033	7.09
667.362	7.09
667.69	7.1
668.018	7.1
668.347	7.1
668.675	7.11
669.003	7.12
669.331	7.11
669.659	7.12
669.987	7.13
670.315	7.13
670.643	7.15
670.971	7.14
671.299	7.14
671.627	7.14
671.955	7.14
672.283	7.14
672.61	7.16
672.938	7.17
673.266	7.15
673.593	7.16
673.921	7.19
674.249	7.19
674.576	7.19
674.904	7.2
675.231	7.2
675.558	7.22
675.886	7.23
676.213	7.25
676.54	7.24
676.867	7.26
677.195	7.3
677.522	7.32
677.849	7.34
678.176	7.35
678.503	7.36
678.83	7.37
679.157	7.38
679.484	7.38
679.81	7.38
680.137	7.36
680.464	7.36
680.791	7.35
681.117	7.36
681.444	7.36
681.771	7.35
682.097	7.36
682.424	7.34
682.75	7.33
