Data from UWBM88853_Reflection_00011.txt Node
Date: Sun May 02 13:41:57 EDT 2021
User: vgr7
Spectrometer: USB2G7710
Scans to average: 10
Trigger mode: 4
Integration Time (sec): 1.000000E-1
Electric dark correction enabled: true
Boxcar width: 20
XAxis mode: Wavelengths
Number of Pixels in Spectrum: 2048
>>>>>Begin Spectral Data<<<<<
177.721	142.65
178.105	166.23
178.488	196.71
178.871	300
179.254	199.52
179.636	72.2
180.019	52.31
180.402	50.66
180.785	56.22
181.168	53.14
181.55	43.24
181.933	49.19
182.316	41.54
182.698	32.33
183.081	27.69
183.463	29.13
183.846	23.38
184.228	22.77
184.611	22.54
184.993	22.45
185.376	20.37
185.758	20.53
186.14	18.43
186.522	13.88
186.904	10.14
187.287	9.2
187.669	11.37
188.051	11.39
188.433	15.02
188.815	11.91
189.197	12.44
189.579	12.16
189.961	11.39
190.342	11.19
190.724	10.2
191.106	10.7
191.488	14.07
191.869	12.35
192.251	12.44
192.633	10.19
193.014	9.55
193.396	7.85
193.777	10.62
194.159	9.24
194.54	7.41
194.922	6.47
195.303	9.01
195.684	8.96
196.065	7.89
196.447	7.96
196.828	7.57
197.209	8.03
197.59	4.98
197.971	5.15
198.352	7.45
198.733	9.91
199.114	8.15
199.495	10.18
199.876	8.92
200.257	9.82
200.638	9.44
201.018	10.88
201.399	11.85
201.78	12.28
202.16	13.39
202.541	13.48
202.922	14.32
203.302	13.3
203.683	13.28
204.063	13.04
204.444	14.05
204.824	13.8
205.204	12.57
205.585	13.72
205.965	14.12
206.345	14.02
206.725	14.8
207.106	13.2
207.486	14.09
207.866	14.26
208.246	15.03
208.626	14.68
209.006	15.68
209.386	13.9
209.766	14.38
210.145	14.84
210.525	14.81
210.905	16.37
211.285	15
211.664	15.45
212.044	14.28
212.424	14.74
212.803	14.5
213.183	14.39
213.562	15.07
213.942	14.24
214.321	12.23
214.701	13.39
215.08	13.82
215.459	15.2
215.838	14.56
216.218	14.47
216.597	12.93
216.976	12.39
217.355	12.6
217.734	12.67
218.113	12.61
218.492	11.85
218.871	12.59
219.25	12.28
219.629	12.71
220.008	11.35
220.387	11.33
220.766	12.83
221.144	11.7
221.523	11.45
221.902	11.32
222.28	10.16
222.659	9.69
223.037	9.37
223.416	10.16
223.794	10.21
224.173	9.4
224.551	7.79
224.929	8.75
225.308	8.96
225.686	8.76
226.064	8.8
226.442	8.07
226.821	8.8
227.199	8.79
227.577	8.72
227.955	9.19
228.333	9.51
228.711	9.19
229.089	8.73
229.467	8.62
229.845	8.56
230.222	8.32
230.6	7.68
230.978	7.46
231.356	7.26
231.733	7.23
232.111	7.12
232.488	6.99
232.866	6.52
233.243	6.32
233.621	6.28
233.998	6.32
234.376	6.21
234.753	5.85
235.13	5.67
235.508	5.62
235.885	5.49
236.262	5.36
236.639	5.3
237.016	5.2
237.393	5.1
237.77	5.09
238.147	5.06
238.524	4.92
238.901	4.78
239.278	4.74
239.655	4.77
240.032	4.78
240.409	4.72
240.785	4.67
241.162	4.65
241.539	4.59
241.915	4.62
242.292	4.57
242.668	4.56
243.045	4.57
243.421	4.46
243.798	4.46
244.174	4.52
244.551	4.54
244.927	4.51
245.303	4.5
245.679	4.47
246.056	4.45
246.432	4.42
246.808	4.39
247.184	4.39
247.56	4.42
247.936	4.4
248.312	4.41
248.688	4.41
249.064	4.43
249.44	4.41
249.815	4.38
250.191	4.35
250.567	4.34
250.943	4.32
251.318	4.29
251.694	4.28
252.069	4.25
252.445	4.23
252.82	4.22
253.196	4.18
253.571	4.15
253.947	4.15
254.322	4.12
254.697	4.1
255.073	4.09
255.448	4.1
255.823	4.06
256.198	4.04
256.573	4.02
256.948	4.03
257.323	4
257.698	3.95
258.073	3.92
258.448	3.89
258.823	3.87
259.198	3.85
259.573	3.8
259.948	3.77
260.322	3.76
260.697	3.76
261.072	3.75
261.446	3.75
261.821	3.74
262.195	3.74
262.57	3.72
262.944	3.7
263.319	3.7
263.693	3.7
264.067	3.69
264.442	3.67
264.816	3.64
265.19	3.64
265.564	3.66
265.938	3.65
266.313	3.66
266.687	3.66
267.061	3.66
267.435	3.67
267.809	3.66
268.183	3.66
268.556	3.66
268.93	3.68
269.304	3.68
269.678	3.68
270.051	3.66
270.425	3.62
270.799	3.6
271.172	3.6
271.546	3.61
271.919	3.61
272.293	3.6
272.666	3.59
273.04	3.63
273.413	3.64
273.787	3.67
274.16	3.69
274.533	3.69
274.906	3.71
275.279	3.72
275.653	3.74
276.026	3.74
276.399	3.75
276.772	3.76
277.145	3.78
277.518	3.78
277.891	3.77
278.263	3.76
278.636	3.77
279.009	3.75
279.382	3.75
279.755	3.76
280.127	3.77
280.5	3.78
280.872	3.79
281.245	3.8
281.617	3.8
281.99	3.8
282.362	3.79
282.735	3.79
283.107	3.79
283.479	3.79
283.852	3.81
284.224	3.8
284.596	3.8
284.968	3.8
285.34	3.82
285.713	3.83
286.085	3.84
286.457	3.84
286.829	3.84
287.201	3.84
287.572	3.86
287.944	3.87
288.316	3.85
288.688	3.85
289.06	3.86
289.431	3.86
289.803	3.86
290.175	3.87
290.546	3.89
290.918	3.89
291.289	3.91
291.661	3.9
292.032	3.9
292.403	3.9
292.775	3.92
293.146	3.94
293.517	3.96
293.889	3.97
294.26	4
294.631	4.02
295.002	4.05
295.373	4.06
295.744	4.08
296.115	4.09
296.486	4.11
296.857	4.13
297.228	4.15
297.599	4.18
297.97	4.2
298.34	4.23
298.711	4.25
299.082	4.27
299.452	4.3
299.823	4.32
300.194	4.35
300.564	4.37
300.935	4.41
301.305	4.43
301.676	4.46
302.046	4.49
302.416	4.52
302.787	4.53
303.157	4.57
303.527	4.61
303.897	4.65
304.267	4.67
304.637	4.71
305.008	4.74
305.378	4.77
305.748	4.8
306.117	4.85
306.487	4.9
306.857	4.95
307.227	5
307.597	5.05
307.967	5.08
308.336	5.12
308.706	5.15
309.076	5.18
309.445	5.21
309.815	5.24
310.184	5.27
310.554	5.3
310.923	5.33
311.293	5.36
311.662	5.39
312.031	5.43
312.401	5.47
312.77	5.5
313.139	5.53
313.508	5.57
313.877	5.59
314.246	5.62
314.616	5.65
314.985	5.68
315.353	5.72
315.722	5.74
316.091	5.78
316.46	5.81
316.829	5.85
317.198	5.89
317.567	5.92
317.935	5.96
318.304	5.99
318.672	6.02
319.041	6.07
319.41	6.12
319.778	6.16
320.147	6.19
320.515	6.22
320.883	6.24
321.252	6.26
321.62	6.29
321.988	6.33
322.357	6.35
322.725	6.37
323.093	6.41
323.461	6.43
323.829	6.47
324.197	6.51
324.565	6.52
324.933	6.56
325.301	6.58
325.669	6.61
326.037	6.64
326.405	6.66
326.772	6.69
327.14	6.71
327.508	6.73
327.875	6.74
328.243	6.77
328.61	6.78
328.978	6.81
329.346	6.83
329.713	6.87
330.08	6.89
330.448	6.92
330.815	6.94
331.182	6.96
331.55	6.99
331.917	7.01
332.284	7.01
332.651	7.04
333.018	7.08
333.385	7.12
333.752	7.15
334.119	7.17
334.486	7.2
334.853	7.23
335.22	7.27
335.587	7.31
335.954	7.34
336.32	7.37
336.687	7.38
337.054	7.41
337.42	7.44
337.787	7.48
338.153	7.5
338.52	7.53
338.886	7.53
339.253	7.56
339.619	7.58
339.986	7.61
340.352	7.64
340.718	7.65
341.084	7.67
341.451	7.69
341.817	7.72
342.183	7.74
342.549	7.76
342.915	7.79
343.281	7.81
343.647	7.85
344.013	7.86
344.379	7.88
344.745	7.89
345.11	7.92
345.476	7.94
345.842	7.96
346.208	7.98
346.573	7.99
346.939	8.01
347.304	8.04
347.67	8.05
348.035	8.07
348.401	8.08
348.766	8.1
349.132	8.12
349.497	8.13
349.862	8.14
350.228	8.14
350.593	8.16
350.958	8.18
351.323	8.18
351.688	8.19
352.053	8.2
352.418	8.2
352.783	8.2
353.148	8.2
353.513	8.2
353.878	8.21
354.243	8.22
354.608	8.23
354.972	8.23
355.337	8.23
355.702	8.23
356.066	8.23
356.431	8.23
356.795	8.21
357.16	8.2
357.524	8.21
357.889	8.2
358.253	8.19
358.618	8.18
358.982	8.17
359.346	8.17
359.71	8.16
360.075	8.16
360.439	8.14
360.803	8.13
361.167	8.12
361.531	8.11
361.895	8.09
362.259	8.08
362.623	8.07
362.987	8.05
363.351	8.04
363.714	8.01
364.078	7.99
364.442	7.97
364.806	7.95
365.169	7.93
365.533	7.91
365.896	7.88
366.26	7.86
366.623	7.84
366.987	7.81
367.35	7.78
367.714	7.76
368.077	7.73
368.44	7.7
368.803	7.67
369.167	7.63
369.53	7.58
369.893	7.54
370.256	7.5
370.619	7.46
370.982	7.42
371.345	7.38
371.708	7.34
372.071	7.3
372.434	7.25
372.797	7.2
373.159	7.16
373.522	7.12
373.885	7.09
374.247	7.05
374.61	7
374.973	6.95
375.335	6.9
375.698	6.85
376.06	6.8
376.423	6.76
376.785	6.71
377.147	6.66
377.51	6.62
377.872	6.58
378.234	6.53
378.596	6.49
378.958	6.44
379.321	6.4
379.683	6.36
380.045	6.31
380.407	6.27
380.769	6.23
381.13	6.19
381.492	6.15
381.854	6.12
382.216	6.08
382.578	6.04
382.939	6
383.301	5.96
383.663	5.92
384.024	5.88
384.386	5.85
384.747	5.81
385.109	5.78
385.47	5.75
385.832	5.71
386.193	5.67
386.554	5.64
386.916	5.6
387.277	5.56
387.638	5.54
387.999	5.51
388.36	5.48
388.721	5.44
389.082	5.41
389.443	5.38
389.804	5.35
390.165	5.32
390.526	5.3
390.887	5.27
391.248	5.24
391.609	5.21
391.969	5.19
392.33	5.15
392.691	5.13
393.051	5.1
393.412	5.07
393.772	5.04
394.133	5.01
394.493	4.98
394.854	4.95
395.214	4.92
395.574	4.89
395.935	4.86
396.295	4.83
396.655	4.8
397.015	4.77
397.376	4.74
397.736	4.71
398.096	4.69
398.456	4.66
398.816	4.64
399.176	4.61
399.535	4.58
399.895	4.55
400.255	4.53
400.615	4.51
400.975	4.49
401.334	4.47
401.694	4.45
402.054	4.43
402.413	4.4
402.773	4.38
403.132	4.36
403.492	4.34
403.851	4.32
404.211	4.31
404.57	4.29
404.929	4.28
405.288	4.27
405.648	4.25
406.007	4.25
406.366	4.23
406.725	4.22
407.084	4.21
407.443	4.2
407.802	4.19
408.161	4.18
408.52	4.17
408.879	4.16
409.238	4.15
409.596	4.14
409.955	4.14
410.314	4.13
410.673	4.12
411.031	4.11
411.39	4.11
411.748	4.1
412.107	4.09
412.465	4.09
412.824	4.1
413.182	4.11
413.54	4.12
413.899	4.13
414.257	4.15
414.615	4.18
414.974	4.2
415.332	4.22
415.69	4.24
416.048	4.26
416.406	4.29
416.764	4.31
417.122	4.33
417.48	4.35
417.838	4.37
418.195	4.38
418.553	4.39
418.911	4.39
419.269	4.39
419.626	4.38
419.984	4.36
420.342	4.34
420.699	4.32
421.057	4.29
421.414	4.27
421.772	4.25
422.129	4.23
422.486	4.22
422.844	4.21
423.201	4.21
423.558	4.2
423.915	4.19
424.273	4.19
424.63	4.18
424.987	4.17
425.344	4.17
425.701	4.16
426.058	4.15
426.415	4.15
426.772	4.14
427.128	4.13
427.485	4.12
427.842	4.1
428.199	4.08
428.555	4.06
428.912	4.04
429.269	4.01
429.625	3.98
429.982	3.96
430.338	3.93
430.695	3.9
431.051	3.87
431.407	3.84
431.764	3.83
432.12	3.8
432.476	3.79
432.832	3.78
433.189	3.78
433.545	3.79
433.901	3.8
434.257	3.81
434.613	3.84
434.969	3.86
435.325	3.89
435.681	3.92
436.036	3.94
436.392	3.96
436.748	3.98
437.104	3.98
437.459	4
437.815	4.02
438.171	4.04
438.526	4.05
438.882	4.08
439.237	4.12
439.593	4.15
439.948	4.18
440.304	4.21
440.659	4.23
441.014	4.24
441.369	4.27
441.725	4.28
442.08	4.29
442.435	4.3
442.79	4.31
443.145	4.31
443.5	4.31
443.855	4.3
444.21	4.3
444.565	4.29
444.92	4.28
445.275	4.27
445.629	4.26
445.984	4.25
446.339	4.24
446.693	4.22
447.048	4.2
447.403	4.19
447.757	4.16
448.112	4.14
448.466	4.12
448.82	4.09
449.175	4.07
449.529	4.05
449.883	4.03
450.238	4
450.592	4
450.946	3.98
451.3	3.98
451.654	3.98
452.008	3.98
452.362	3.98
452.716	3.98
453.07	3.98
453.424	3.97
453.778	3.96
454.132	3.95
454.486	3.93
454.839	3.92
455.193	3.89
455.547	3.88
455.9	3.86
456.254	3.84
456.607	3.82
456.961	3.79
457.314	3.78
457.668	3.77
458.021	3.77
458.375	3.76
458.728	3.77
459.081	3.77
459.434	3.78
459.787	3.8
460.141	3.81
460.494	3.82
460.847	3.83
461.2	3.84
461.553	3.85
461.906	3.86
462.259	3.87
462.611	3.88
462.964	3.89
463.317	3.9
463.67	3.91
464.022	3.92
464.375	3.93
464.728	3.94
465.08	3.95
465.433	3.96
465.785	3.96
466.138	3.96
466.49	3.95
466.843	3.94
467.195	3.93
467.547	3.91
467.899	3.9
468.252	3.88
468.604	3.87
468.956	3.86
469.308	3.85
469.66	3.86
470.012	3.86
470.364	3.87
470.716	3.88
471.068	3.9
471.42	3.93
471.772	3.95
472.123	3.96
472.475	3.98
472.827	3.99
473.178	4
473.53	4.01
473.882	4.02
474.233	4.04
474.585	4.07
474.936	4.13
475.288	4.21
475.639	4.31
475.99	4.43
476.342	4.56
476.693	4.71
477.044	4.86
477.395	5.02
477.746	5.17
478.097	5.33
478.448	5.49
478.8	5.64
479.15	5.78
479.501	5.92
479.852	6.04
480.203	6.16
480.554	6.26
480.905	6.37
481.255	6.47
481.606	6.56
481.957	6.65
482.307	6.73
482.658	6.81
483.009	6.89
483.359	6.96
483.709	7.04
484.06	7.11
484.41	7.18
484.761	7.24
485.111	7.31
485.461	7.37
485.811	7.43
486.162	7.48
486.512	7.53
486.862	7.56
487.212	7.59
487.562	7.6
487.912	7.62
488.262	7.63
488.612	7.63
488.961	7.61
489.311	7.58
489.661	7.52
490.011	7.45
490.36	7.36
490.71	7.25
491.06	7.14
491.409	7.02
491.759	6.89
492.108	6.76
492.458	6.63
492.807	6.49
493.157	6.35
493.506	6.22
493.855	6.1
494.204	5.99
494.554	5.88
494.903	5.79
495.252	5.7
495.601	5.62
495.95	5.54
496.299	5.47
496.648	5.41
496.997	5.36
497.346	5.31
497.695	5.27
498.043	5.23
498.392	5.2
498.741	5.17
499.09	5.15
499.438	5.13
499.787	5.12
500.135	5.12
500.484	5.13
500.832	5.15
501.181	5.19
501.529	5.25
501.878	5.32
502.226	5.4
502.574	5.49
502.923	5.59
503.271	5.7
503.619	5.81
503.967	5.93
504.315	6.04
504.663	6.16
505.011	6.29
505.359	6.42
505.707	6.56
506.055	6.7
506.403	6.85
506.751	7
507.098	7.16
507.446	7.33
507.794	7.51
508.141	7.7
508.489	7.89
508.837	8.1
509.184	8.31
509.531	8.53
509.879	8.77
510.226	9.03
510.574	9.29
510.921	9.56
511.268	9.84
511.616	10.14
511.963	10.44
512.31	10.75
512.657	11.06
513.004	11.37
513.351	11.68
513.698	11.97
514.045	12.25
514.392	12.52
514.739	12.79
515.086	13.04
515.432	13.3
515.779	13.56
516.126	13.83
516.473	14.13
516.819	14.44
517.166	14.77
517.512	15.13
517.859	15.51
518.205	15.91
518.552	16.34
518.898	16.8
519.245	17.32
519.591	17.92
519.937	18.63
520.283	19.43
520.629	20.29
520.976	21.2
521.322	22.14
521.668	23.1
522.014	24.07
522.36	25.02
522.706	25.96
523.052	26.88
523.398	27.75
523.743	28.57
524.089	29.32
524.435	30.02
524.781	30.71
525.126	31.39
525.472	32.04
525.817	32.7
526.163	33.34
526.509	33.95
526.854	34.57
527.199	35.17
527.545	35.78
527.89	36.4
528.235	37.01
528.581	37.59
528.926	38.13
529.271	38.65
529.616	39.15
529.961	39.61
530.306	40.04
530.651	40.44
530.996	40.81
531.341	41.15
531.686	41.46
532.031	41.76
532.376	42.08
532.721	42.42
533.065	42.79
533.41	43.17
533.755	43.51
534.099	43.79
534.444	44
534.788	44.19
535.133	44.34
535.477	44.46
535.822	44.54
536.166	44.57
536.51	44.53
536.855	44.42
537.199	44.27
537.543	44.11
537.887	43.99
538.231	43.92
538.576	43.84
538.92	43.75
539.264	43.65
539.608	43.53
539.951	43.37
540.295	43.2
540.639	43.01
540.983	42.8
541.327	42.57
541.671	42.33
542.014	42.13
542.358	41.93
542.701	41.86
543.045	41.84
543.389	41.85
543.732	41.91
544.075	41.97
544.419	42.06
544.762	42.14
545.105	42.25
545.449	42.37
545.792	42.5
546.135	42.63
546.478	42.71
546.821	42.72
547.165	42.66
547.508	42.53
547.851	42.33
548.194	42.09
548.536	41.8
548.879	41.46
549.222	41.09
549.565	40.71
549.908	40.33
550.25	39.99
550.593	39.71
550.936	39.52
551.278	39.4
551.621	39.32
551.963	39.26
552.306	39.23
552.648	39.24
552.991	39.27
553.333	39.32
553.675	39.42
554.017	39.55
554.36	39.71
554.702	39.9
555.044	40.14
555.386	40.43
555.728	40.74
556.07	40.99
556.412	41.27
556.754	41.44
557.096	41.58
557.438	41.72
557.78	41.84
558.121	41.98
558.463	42.13
558.805	42.27
559.147	42.39
559.488	42.52
559.83	42.65
560.171	42.78
560.513	42.9
560.854	43.01
561.196	43.13
561.537	43.25
561.878	43.37
562.22	43.47
562.561	43.57
562.902	43.69
563.243	43.8
563.584	43.92
563.925	44.03
564.266	44.15
564.607	44.26
564.948	44.37
565.289	44.48
565.63	44.59
565.971	44.69
566.312	44.79
566.653	44.9
566.993	45.01
567.334	45.1
567.675	45.19
568.015	45.27
568.356	45.36
568.696	45.44
569.037	45.54
569.377	45.62
569.718	45.7
570.058	45.78
570.398	45.85
570.739	45.92
571.079	45.99
571.419	46.05
571.759	46.11
572.099	46.16
572.439	46.22
572.779	46.27
573.119	46.34
573.459	46.39
573.799	46.44
574.139	46.49
574.479	46.55
574.819	46.6
575.158	46.66
575.498	46.71
575.838	46.76
576.177	46.81
576.517	46.88
576.856	46.92
577.196	46.97
577.535	47.01
577.875	47.06
578.214	47.1
578.553	47.14
578.893	47.19
579.232	47.24
579.571	47.27
579.91	47.32
580.25	47.37
580.589	47.41
580.928	47.44
581.267	47.48
581.606	47.53
581.945	47.59
582.283	47.63
582.622	47.69
582.961	47.73
583.3	47.77
583.639	47.82
583.977	47.86
584.316	47.92
584.654	47.97
584.993	48.02
585.332	48.08
585.67	48.15
586.008	48.2
586.347	48.25
586.685	48.31
587.024	48.35
587.362	48.41
587.7	48.46
588.038	48.52
588.376	48.57
588.715	48.64
589.053	48.69
589.391	48.76
589.729	48.82
590.067	48.89
590.404	48.95
590.742	49.01
591.08	49.07
591.418	49.12
591.756	49.18
592.093	49.22
592.431	49.27
592.769	49.31
593.106	49.35
593.444	49.39
593.781	49.42
594.119	49.48
594.456	49.52
594.793	49.56
595.131	49.6
595.468	49.65
595.805	49.7
596.143	49.75
596.48	49.79
596.817	49.84
597.154	49.9
597.491	49.96
597.828	50.01
598.165	50.06
598.502	50.12
598.839	50.16
599.176	50.19
599.512	50.24
599.849	50.28
600.186	50.31
600.523	50.35
600.859	50.39
601.196	50.43
601.532	50.47
601.869	50.49
602.205	50.53
602.542	50.57
602.878	50.6
603.215	50.62
603.551	50.65
603.887	50.67
604.223	50.7
604.56	50.74
604.896	50.77
605.232	50.79
605.568	50.81
605.904	50.84
606.24	50.87
606.576	50.89
606.912	50.92
607.248	50.94
607.583	50.97
607.919	50.98
608.255	51.02
608.591	51.05
608.926	51.07
609.262	51.09
609.597	51.1
609.933	51.12
610.268	51.13
610.604	51.14
610.939	51.15
611.275	51.17
611.61	51.17
611.945	51.18
612.281	51.18
612.616	51.19
612.951	51.22
613.286	51.23
613.621	51.26
613.956	51.29
614.291	51.31
614.626	51.32
614.961	51.33
615.296	51.36
615.631	51.39
615.966	51.41
616.3	51.43
616.635	51.46
616.97	51.5
617.304	51.52
617.639	51.55
617.973	51.56
618.308	51.59
618.642	51.61
618.977	51.65
619.311	51.67
619.646	51.7
619.98	51.71
620.314	51.74
620.648	51.77
620.983	51.8
621.317	51.83
621.651	51.86
621.985	51.88
622.319	51.89
622.653	51.92
622.987	51.96
623.321	51.97
623.655	52
623.988	52.03
624.322	52.05
624.656	52.08
624.99	52.1
625.323	52.12
625.657	52.15
625.99	52.18
626.324	52.2
626.657	52.22
626.991	52.25
627.324	52.26
627.658	52.28
627.991	52.31
628.324	52.33
628.657	52.36
628.991	52.37
629.324	52.38
629.657	52.4
629.99	52.41
630.323	52.42
630.656	52.44
630.989	52.47
631.322	52.48
631.655	52.51
631.987	52.51
632.32	52.53
632.653	52.54
632.986	52.57
633.318	52.58
633.651	52.61
633.984	52.62
634.316	52.64
634.649	52.65
634.981	52.66
635.313	52.68
635.646	52.7
635.978	52.73
636.31	52.74
636.643	52.76
636.975	52.78
637.307	52.82
637.639	52.83
637.971	52.84
638.303	52.85
638.635	52.85
638.967	52.87
639.299	52.89
639.631	52.91
639.963	52.93
640.295	52.96
640.626	52.98
640.958	53
641.29	53.02
641.621	53.02
641.953	53.03
642.285	53.05
642.616	53.06
642.948	53.08
643.279	53.1
643.61	53.12
643.942	53.13
644.273	53.14
644.604	53.15
644.936	53.17
645.267	53.18
645.598	53.2
645.929	53.21
646.26	53.23
646.591	53.23
646.922	53.27
647.253	53.29
647.584	53.31
647.915	53.33
648.245	53.35
648.576	53.37
648.907	53.39
649.238	53.4
649.568	53.42
649.899	53.41
650.229	53.41
650.56	53.45
650.89	53.45
651.221	53.46
651.551	53.49
651.882	53.5
652.212	53.53
652.542	53.54
652.872	53.55
653.203	53.57
653.533	53.57
653.863	53.59
654.193	53.62
654.523	53.62
654.853	53.64
655.183	53.67
655.513	53.68
655.843	53.69
656.172	53.72
656.502	53.75
656.832	53.76
657.162	53.79
657.491	53.78
657.821	53.81
658.15	53.83
658.48	53.85
658.809	53.89
659.139	53.91
659.468	53.94
659.798	53.95
660.127	53.97
660.456	53.97
660.785	53.98
661.115	53.99
661.444	54.01
661.773	54.02
662.102	54.04
662.431	54.04
662.76	54.07
663.089	54.08
663.418	54.1
663.747	54.12
664.076	54.12
664.404	54.15
664.733	54.17
665.062	54.2
665.39	54.24
665.719	54.26
666.048	54.27
666.376	54.28
666.705	54.29
667.033	54.3
667.362	54.3
667.69	54.3
668.018	54.33
668.347	54.35
668.675	54.38
669.003	54.41
669.331	54.42
669.659	54.44
669.987	54.43
670.315	54.43
670.643	54.46
