Data from UWBM91361_Reflection_00010.txt Node
Date: Sun May 02 12:22:05 EDT 2021
User: vgr7
Spectrometer: USB2G7710
Scans to average: 10
Trigger mode: 4
Integration Time (sec): 1.000000E-1
Electric dark correction enabled: true
Boxcar width: 10
XAxis mode: Wavelengths
Number of Pixels in Spectrum: 2048
>>>>>Begin Spectral Data<<<<<
177.721	-228.77
178.105	188.24
178.488	51.86
178.871	33.6
179.254	120.69
179.636	107.79
180.019	67.32
180.402	116.67
180.785	36.05
181.168	208.51
181.55	72.48
181.933	75.21
182.316	60.95
182.698	58.26
183.081	-55.29
183.463	-72.17
183.846	-36.27
184.228	-27.41
184.611	-10.5
184.993	12.2
185.376	-1.26
185.758	-9.82
186.14	-9.04
186.522	-2.49
186.904	-5.88
187.287	0.49
187.669	0.49
188.051	-1.48
188.433	9.29
188.815	15.65
189.197	9.93
189.579	10.45
189.961	8.51
190.342	8.51
190.724	15
191.106	13.9
191.488	15.16
191.869	14.25
192.251	16.09
192.633	12.05
193.014	10.41
193.396	9.72
193.777	13.98
194.159	12.8
194.54	8.9
194.922	8.88
195.303	5.32
195.684	3.34
196.065	3.23
196.447	-1.94
196.828	-9.07
197.209	-12.01
197.59	-9.19
197.971	-12.29
198.352	-12.46
198.733	-10.4
199.114	-7.9
199.495	-13.44
199.876	-11.43
200.257	-13.15
200.638	-9.94
201.018	-12.71
201.399	-12.49
201.78	-13.99
202.16	-13.51
202.541	-12.27
202.922	-8.49
203.302	-12.21
203.683	-9.98
204.063	-8.22
204.444	-8.53
204.824	-3.41
205.204	-0.36
205.585	-5.55
205.965	-5.28
206.345	-2.31
206.725	-10.71
207.106	-8.62
207.486	-5.83
207.866	-3.26
208.246	-2.37
208.626	-0.36
209.006	-0.35
209.386	-0.54
209.766	-1.1
210.145	-4.17
210.525	-5.39
210.905	-8.43
211.285	-6.58
211.664	-12.44
212.044	-8.45
212.424	-0.51
212.803	-5.76
213.183	-1.94
213.562	-0.14
213.942	0.72
214.321	-5.55
214.701	-5.57
215.08	-4.95
215.459	-5.95
215.838	-8.92
216.218	-10.13
216.597	-12.08
216.976	-14.43
217.355	-10.53
217.734	-8.98
218.113	-4.44
218.492	-4.08
218.871	-2.36
219.25	2.2
219.629	3.03
220.008	-2.64
220.387	-8.91
220.766	-7.04
221.144	-11.94
221.523	-8.5
221.902	-8.41
222.28	-5.03
222.659	-5.62
223.037	-4.95
223.416	-2.56
223.794	-1.83
224.173	-1.62
224.551	-0.43
224.929	-1.54
225.308	-1.81
225.686	-3.17
226.064	-3.07
226.442	-1.75
226.821	-0.88
227.199	-1.94
227.577	-2.04
227.955	-1.23
228.333	-1.46
228.711	-2.05
229.089	-0.84
229.467	-1.21
229.845	-0.42
230.222	0.19
230.6	1.16
230.978	0.64
231.356	0.33
231.733	0.55
232.111	1.23
232.488	0.58
232.866	0.97
233.243	0.85
233.621	1.87
233.998	1.78
234.376	2.26
234.753	2.81
235.13	2.88
235.508	4.27
235.885	4.4
236.262	4.79
236.639	5.08
237.016	4.91
237.393	4.71
237.77	4.65
238.147	4.57
238.524	4.87
238.901	5.09
239.278	5.04
239.655	5.1
240.032	4.84
240.409	5
240.785	4.95
241.162	4.95
241.539	4.87
241.915	4.93
242.292	4.9
242.668	4.74
243.045	4.83
243.421	4.68
243.798	4.72
244.174	4.66
244.551	4.66
244.927	4.61
245.303	4.65
245.679	4.66
246.056	4.61
246.432	4.59
246.808	4.47
247.184	4.51
247.56	4.48
247.936	4.53
248.312	4.48
248.688	4.52
249.064	4.5
249.44	4.45
249.815	4.41
250.191	4.32
250.567	4.26
250.943	4.21
251.318	4.2
251.694	4.1
252.069	4.03
252.445	4.07
252.82	3.99
253.196	3.96
253.571	3.88
253.947	3.99
254.322	3.97
254.697	4.11
255.073	4.09
255.448	4.12
255.823	4.08
256.198	4.01
256.573	3.86
256.948	3.9
257.323	3.94
257.698	3.96
258.073	3.96
258.448	3.97
258.823	3.98
259.198	3.96
259.573	4.01
259.948	4.03
260.322	3.97
260.697	3.98
261.072	3.92
261.446	3.89
261.821	3.87
262.195	3.82
262.57	3.78
262.944	3.76
263.319	3.72
263.693	3.74
264.067	3.78
264.442	3.81
264.816	3.77
265.19	3.7
265.564	3.67
265.938	3.65
266.313	3.64
266.687	3.6
267.061	3.63
267.435	3.61
267.809	3.63
268.183	3.65
268.556	3.66
268.93	3.74
269.304	3.75
269.678	3.7
270.051	3.68
270.425	3.69
270.799	3.72
271.172	3.73
271.546	3.7
271.919	3.72
272.293	3.69
272.666	3.69
273.04	3.74
273.413	3.68
273.787	3.65
274.16	3.64
274.533	3.64
274.906	3.61
275.279	3.67
275.653	3.62
276.026	3.61
276.399	3.57
276.772	3.55
277.145	3.62
277.518	3.61
277.891	3.68
278.263	3.66
278.636	3.68
279.009	3.67
279.382	3.64
279.755	3.61
280.127	3.7
280.5	3.7
280.872	3.64
281.245	3.69
281.617	3.71
281.99	3.74
282.362	3.7
282.735	3.7
283.107	3.67
283.479	3.74
283.852	3.72
284.224	3.8
284.596	3.81
284.968	3.78
285.34	3.78
285.713	3.8
286.085	3.79
286.457	3.79
286.829	3.75
287.201	3.78
287.572	3.81
287.944	3.8
288.316	3.83
288.688	3.91
289.06	3.92
289.431	3.92
289.803	3.9
290.175	3.94
290.546	3.92
290.918	3.93
291.289	3.89
291.661	3.93
292.032	3.87
292.403	3.89
292.775	3.88
293.146	3.91
293.517	3.88
293.889	3.93
294.26	3.91
294.631	3.95
295.002	3.94
295.373	3.98
295.744	3.96
296.115	3.97
296.486	3.95
296.857	3.98
297.228	4.02
297.599	4.05
297.97	4.06
298.34	4.12
298.711	4.12
299.082	4.12
299.452	4.12
299.823	4.16
300.194	4.19
300.564	4.21
300.935	4.23
301.305	4.28
301.676	4.26
302.046	4.26
302.416	4.3
302.787	4.36
303.157	4.38
303.527	4.44
303.897	4.47
304.267	4.52
304.637	4.54
305.008	4.61
305.378	4.66
305.748	4.67
306.117	4.68
306.487	4.72
306.857	4.79
307.227	4.84
307.597	4.85
307.967	4.88
308.336	4.93
308.706	4.96
309.076	5
309.445	5.04
309.815	5.13
310.184	5.16
310.554	5.19
310.923	5.2
311.293	5.26
311.662	5.28
312.031	5.3
312.401	5.34
312.77	5.32
313.139	5.35
313.508	5.39
313.877	5.44
314.246	5.45
314.616	5.49
314.985	5.51
315.353	5.57
315.722	5.62
316.091	5.65
316.46	5.74
316.829	5.8
317.198	5.84
317.567	5.85
317.935	5.88
318.304	5.93
318.672	5.99
319.041	5.96
319.41	6.01
319.778	6.09
320.147	6.14
320.515	6.18
320.883	6.24
321.252	6.28
321.62	6.31
321.988	6.38
322.357	6.42
322.725	6.46
323.093	6.46
323.461	6.45
323.829	6.45
324.197	6.45
324.565	6.46
324.933	6.49
325.301	6.52
325.669	6.56
326.037	6.56
326.405	6.57
326.772	6.59
327.14	6.59
327.508	6.55
327.875	6.55
328.243	6.61
328.61	6.64
328.978	6.68
329.346	6.67
329.713	6.68
330.08	6.72
330.448	6.72
330.815	6.79
331.182	6.8
331.55	6.85
331.917	6.89
332.284	6.91
332.651	6.92
333.018	6.97
333.385	7
333.752	7.05
334.119	7.09
334.486	7.13
334.853	7.14
335.22	7.23
335.587	7.23
335.954	7.24
336.32	7.24
336.687	7.24
337.054	7.29
337.42	7.32
337.787	7.34
338.153	7.41
338.52	7.44
338.886	7.52
339.253	7.52
339.619	7.52
339.986	7.56
340.352	7.61
340.718	7.62
341.084	7.63
341.451	7.61
341.817	7.62
342.183	7.66
342.549	7.69
342.915	7.66
343.281	7.7
343.647	7.74
344.013	7.76
344.379	7.81
344.745	7.83
345.11	7.86
345.476	7.86
345.842	7.88
346.208	7.88
346.573	7.87
346.939	7.91
347.304	7.92
347.67	7.92
348.035	7.92
348.401	7.91
348.766	7.92
349.132	7.94
349.497	7.95
349.862	7.94
350.228	7.95
350.593	7.98
350.958	7.98
351.323	7.98
351.688	7.99
352.053	7.98
352.418	8
352.783	7.97
353.148	7.97
353.513	7.95
353.878	7.96
354.243	7.96
354.608	7.95
354.972	7.95
355.337	7.94
355.702	7.91
356.066	7.9
356.431	7.88
356.795	7.87
357.16	7.85
357.524	7.84
357.889	7.82
358.253	7.8
358.618	7.79
358.982	7.77
359.346	7.74
359.71	7.71
360.075	7.65
360.439	7.65
360.803	7.6
361.167	7.57
361.531	7.55
361.895	7.53
362.259	7.5
362.623	7.48
362.987	7.47
363.351	7.45
363.714	7.44
364.078	7.41
364.442	7.39
364.806	7.36
365.169	7.34
365.533	7.31
365.896	7.27
366.26	7.23
366.623	7.2
366.987	7.16
367.35	7.14
367.714	7.14
368.077	7.1
368.44	7.09
368.803	7.06
369.167	7.02
369.53	6.98
369.893	6.96
370.256	6.92
370.619	6.89
370.982	6.85
371.345	6.79
371.708	6.77
372.071	6.74
372.434	6.7
372.797	6.65
373.159	6.62
373.522	6.6
373.885	6.59
374.247	6.54
374.61	6.49
374.973	6.45
375.335	6.41
375.698	6.37
376.06	6.33
376.423	6.3
376.785	6.27
377.147	6.22
377.51	6.19
377.872	6.16
378.234	6.1
378.596	6.07
378.958	6.04
379.321	6
379.683	5.97
380.045	5.95
380.407	5.92
380.769	5.89
381.13	5.87
381.492	5.81
381.854	5.78
382.216	5.78
382.578	5.73
382.939	5.71
383.301	5.67
383.663	5.65
384.024	5.61
384.386	5.59
384.747	5.57
385.109	5.54
385.47	5.5
385.832	5.49
386.193	5.46
386.554	5.44
386.916	5.43
387.277	5.39
387.638	5.38
387.999	5.35
388.36	5.33
388.721	5.29
389.082	5.26
389.443	5.24
389.804	5.2
390.165	5.18
390.526	5.15
390.887	5.13
391.248	5.1
391.609	5.08
391.969	5.05
392.33	5.03
392.691	5
393.051	4.98
393.412	4.95
393.772	4.92
394.133	4.91
394.493	4.87
394.854	4.86
395.214	4.82
395.574	4.79
395.935	4.76
396.295	4.74
396.655	4.72
397.015	4.69
397.376	4.67
397.736	4.65
398.096	4.62
398.456	4.59
398.816	4.58
399.176	4.55
399.535	4.54
399.895	4.51
400.255	4.49
400.615	4.47
400.975	4.46
401.334	4.44
401.694	4.42
402.054	4.41
402.413	4.4
402.773	4.4
403.132	4.39
403.492	4.38
403.851	4.36
404.211	4.35
404.57	4.35
404.929	4.34
405.288	4.33
405.648	4.32
406.007	4.32
406.366	4.31
406.725	4.3
407.084	4.28
407.443	4.27
407.802	4.26
408.161	4.27
408.52	4.26
408.879	4.26
409.238	4.26
409.596	4.25
409.955	4.24
410.314	4.23
410.673	4.21
411.031	4.2
411.39	4.19
411.748	4.19
412.107	4.18
412.465	4.19
412.824	4.19
413.182	4.18
413.54	4.18
413.899	4.17
414.257	4.17
414.615	4.16
414.974	4.16
415.332	4.17
415.69	4.16
416.048	4.16
416.406	4.15
416.764	4.15
417.122	4.14
417.48	4.14
417.838	4.13
418.195	4.14
418.553	4.14
418.911	4.14
419.269	4.14
419.626	4.14
419.984	4.14
420.342	4.13
420.699	4.13
421.057	4.14
421.414	4.13
421.772	4.14
422.129	4.14
422.486	4.13
422.844	4.12
423.201	4.12
423.558	4.11
423.915	4.11
424.273	4.11
424.63	4.1
424.987	4.1
425.344	4.09
425.701	4.08
426.058	4.08
426.415	4.06
426.772	4.04
427.128	4.03
427.485	4.02
427.842	4.02
428.199	4.01
428.555	4
428.912	3.99
429.269	3.97
429.625	3.97
429.982	3.96
430.338	3.95
430.695	3.95
431.051	3.95
431.407	3.95
431.764	3.94
432.12	3.93
432.476	3.93
432.832	3.93
433.189	3.93
433.545	3.93
433.901	3.94
434.257	3.95
434.613	3.94
434.969	3.94
435.325	3.95
435.681	3.95
436.036	3.95
436.392	3.96
436.748	3.97
437.104	3.96
437.459	3.97
437.815	3.98
438.171	3.97
438.526	3.98
438.882	3.98
439.237	3.98
439.593	3.99
439.948	4
440.304	4
440.659	4
441.014	3.99
441.369	4
441.725	4
442.08	4.01
442.435	4.01
442.79	4.01
443.145	4.01
443.5	4.01
443.855	4.01
444.21	4.01
444.565	4.01
444.92	4.01
445.275	4.01
445.629	4.01
445.984	4.01
446.339	4.01
446.693	4.01
447.048	4.01
447.403	4
447.757	4
448.112	4
448.466	4
448.82	4
449.175	4
449.529	3.98
449.883	3.98
450.238	3.97
450.592	3.96
450.946	3.96
451.3	3.95
451.654	3.95
452.008	3.94
452.362	3.93
452.716	3.93
453.07	3.92
453.424	3.92
453.778	3.92
454.132	3.91
454.486	3.91
454.839	3.91
455.193	3.92
455.547	3.92
455.9	3.92
456.254	3.93
456.607	3.93
456.961	3.94
457.314	3.95
457.668	3.96
458.021	3.96
458.375	3.96
458.728	3.97
459.081	3.97
459.434	3.97
459.787	3.97
460.141	3.97
460.494	3.97
460.847	3.98
461.2	3.97
461.553	3.98
461.906	3.98
462.259	3.97
462.611	3.97
462.964	3.97
463.317	3.97
463.67	3.97
464.022	3.96
464.375	3.97
464.728	3.96
465.08	3.96
465.433	3.96
465.785	3.96
466.138	3.97
466.49	3.96
466.843	3.97
467.195	3.97
467.547	3.97
467.899	3.98
468.252	3.98
468.604	3.99
468.956	4
469.308	4
469.66	4
470.012	4.01
470.364	4.01
470.716	4.01
471.068	4.02
471.42	4.02
471.772	4.01
472.123	4.02
472.475	4.02
472.827	4.02
473.178	4.02
473.53	4.02
473.882	4.03
474.233	4.03
474.585	4.04
474.936	4.04
475.288	4.05
475.639	4.05
475.99	4.05
476.342	4.05
476.693	4.06
477.044	4.06
477.395	4.06
477.746	4.06
478.097	4.07
478.448	4.09
478.8	4.16
479.15	4.27
479.501	4.41
479.852	4.56
480.203	4.72
480.554	4.88
480.905	5.05
481.255	5.21
481.606	5.38
481.957	5.54
482.307	5.7
482.658	5.83
483.009	5.95
483.359	6.05
483.709	6.15
484.06	6.23
484.41	6.31
484.761	6.39
485.111	6.47
485.461	6.54
485.811	6.6
486.162	6.63
486.512	6.63
486.862	6.6
487.212	6.54
487.562	6.46
487.912	6.37
488.262	6.27
488.612	6.16
488.961	6.05
489.311	5.92
489.661	5.79
490.011	5.65
490.36	5.52
490.71	5.38
491.06	5.24
491.409	5.1
491.759	4.99
492.108	4.89
492.458	4.8
492.807	4.73
493.157	4.66
493.506	4.59
493.855	4.52
494.204	4.45
494.554	4.4
494.903	4.34
495.252	4.29
495.601	4.24
495.95	4.2
496.299	4.17
496.648	4.13
496.997	4.1
497.346	4.1
497.695	4.11
498.043	4.14
498.392	4.19
498.741	4.25
499.09	4.29
499.438	4.32
499.787	4.33
500.135	4.35
500.484	4.37
500.832	4.39
501.181	4.41
501.529	4.43
501.878	4.45
502.226	4.46
502.574	4.49
502.923	4.51
503.271	4.53
503.619	4.56
503.967	4.59
504.315	4.62
504.663	4.65
505.011	4.68
505.359	4.72
505.707	4.75
506.055	4.78
506.403	4.82
506.751	4.86
507.098	4.91
507.446	4.95
507.794	4.99
508.141	5.02
508.489	5.07
508.837	5.1
509.184	5.14
509.531	5.2
509.879	5.24
510.226	5.27
510.574	5.32
510.921	5.36
511.268	5.4
511.616	5.44
511.963	5.48
512.31	5.53
512.657	5.58
513.004	5.62
513.351	5.67
513.698	5.73
514.045	5.78
514.392	5.82
514.739	5.88
515.086	5.93
515.432	5.99
515.779	6.04
516.126	6.1
516.473	6.16
516.819	6.2
517.166	6.25
517.512	6.3
517.859	6.34
518.205	6.39
518.552	6.43
518.898	6.48
519.245	6.52
519.591	6.56
519.937	6.6
520.283	6.65
520.629	6.7
520.976	6.76
521.322	6.81
521.668	6.88
522.014	6.93
522.36	6.99
522.706	7.06
523.052	7.15
523.398	7.28
523.743	7.47
524.089	7.67
524.435	7.91
524.781	8.15
525.126	8.38
525.472	8.63
525.817	8.87
526.163	9.09
526.509	9.3
526.854	9.5
527.199	9.65
527.545	9.77
527.89	9.87
528.235	9.95
528.581	10.04
528.926	10.12
529.271	10.21
529.616	10.3
529.961	10.39
530.306	10.46
530.651	10.5
530.996	10.49
531.341	10.46
531.686	10.4
532.031	10.31
532.376	10.2
532.721	10.06
533.065	9.91
533.41	9.8
533.755	9.69
534.099	9.62
534.444	9.6
534.788	9.6
535.133	9.62
535.477	9.67
535.822	9.72
536.166	9.79
536.51	9.87
536.855	9.97
537.199	10.08
537.543	10.21
537.887	10.37
538.231	10.53
538.576	10.71
538.92	10.9
539.264	11.11
539.608	11.31
539.951	11.52
540.295	11.72
540.639	11.88
540.983	12.02
541.327	12.13
541.671	12.23
542.014	12.36
542.358	12.49
542.701	12.62
543.045	12.74
543.389	12.87
543.732	13
544.075	13.12
544.419	13.24
544.762	13.36
545.105	13.47
545.449	13.57
545.792	13.66
546.135	13.76
546.478	13.86
546.821	13.99
547.165	14.15
547.508	14.35
547.851	14.56
548.194	14.81
548.536	15.08
548.879	15.34
549.222	15.54
549.565	15.75
549.908	15.96
550.25	16.18
550.593	16.41
550.936	16.63
551.278	16.85
551.621	17.08
551.963	17.31
552.306	17.55
552.648	17.78
552.991	17.99
553.333	18.23
553.675	18.46
554.017	18.7
554.36	18.94
554.702	19.16
555.044	19.41
555.386	19.66
555.728	19.91
556.07	20.15
556.412	20.42
556.754	20.68
557.096	20.96
557.438	21.23
557.78	21.51
558.121	21.78
558.463	22.07
558.805	22.34
559.147	22.62
559.488	22.89
559.83	23.18
560.171	23.46
560.513	23.75
560.854	24.04
561.196	24.33
561.537	24.64
561.878	24.95
562.22	25.24
562.561	25.53
562.902	25.82
563.243	26.12
563.584	26.4
563.925	26.68
564.266	26.95
564.607	27.23
564.948	27.49
565.289	27.75
565.63	28.01
565.971	28.26
566.312	28.54
566.653	28.83
566.993	29.08
567.334	29.36
567.675	29.62
568.015	29.89
568.356	30.16
568.696	30.42
569.037	30.66
569.377	30.93
569.718	31.19
570.058	31.44
570.398	31.71
570.739	31.95
571.079	32.2
571.419	32.45
571.759	32.66
572.099	32.89
572.439	33.11
572.779	33.34
573.119	33.57
573.459	33.77
573.799	33.95
574.139	34.14
574.479	34.32
574.819	34.5
575.158	34.66
575.498	34.83
575.838	35
576.177	35.17
576.517	35.33
576.856	35.5
577.196	35.64
577.535	35.78
577.875	35.94
578.214	36.09
578.553	36.26
578.893	36.43
579.232	36.59
579.571	36.74
579.91	36.9
580.25	37.05
580.589	37.18
580.928	37.35
581.267	37.52
581.606	37.69
581.945	37.86
582.283	38.03
582.622	38.2
582.961	38.36
583.3	38.54
583.639	38.71
583.977	38.89
584.316	39.1
584.654	39.27
584.993	39.46
585.332	39.64
585.67	39.78
586.008	39.97
586.347	40.15
586.685	40.33
587.024	40.51
587.362	40.68
587.7	40.86
588.038	41.05
588.376	41.21
588.715	41.35
589.053	41.52
589.391	41.68
589.729	41.82
590.067	41.96
590.404	42.12
590.742	42.26
591.08	42.41
591.418	42.55
591.756	42.72
592.093	42.86
592.431	43.03
592.769	43.18
593.106	43.32
593.444	43.44
593.781	43.55
594.119	43.69
594.456	43.81
594.793	43.93
595.131	44.01
595.468	44.12
595.805	44.23
596.143	44.3
596.48	44.39
596.817	44.46
597.154	44.55
597.491	44.6
597.828	44.69
598.165	44.76
598.502	44.84
598.839	44.92
599.176	44.99
599.512	45.07
599.849	45.16
600.186	45.25
600.523	45.37
600.859	45.5
601.196	45.58
601.532	45.69
601.869	45.78
602.205	45.88
602.542	45.98
602.878	46.08
603.215	46.17
603.551	46.23
603.887	46.35
604.223	46.44
604.56	46.54
604.896	46.61
605.232	46.69
605.568	46.76
605.904	46.81
606.24	46.9
606.576	46.97
606.912	47.04
607.248	47.1
607.583	47.16
607.919	47.21
608.255	47.24
608.591	47.3
608.926	47.34
609.262	47.4
609.597	47.42
609.933	47.46
610.268	47.49
610.604	47.54
610.939	47.55
611.275	47.58
611.61	47.6
611.945	47.62
612.281	47.65
612.616	47.7
612.951	47.74
613.286	47.75
613.621	47.79
613.956	47.79
614.291	47.82
614.626	47.84
614.961	47.86
615.296	47.92
615.631	47.94
615.966	47.95
616.3	48
616.635	48.04
616.97	48.07
617.304	48.14
617.639	48.19
617.973	48.25
618.308	48.29
618.642	48.34
618.977	48.39
619.311	48.44
619.646	48.45
619.98	48.49
620.314	48.54
620.648	48.59
620.983	48.62
621.317	48.69
621.651	48.75
621.985	48.78
622.319	48.83
622.653	48.88
622.987	48.97
623.321	49.02
623.655	49.1
623.988	49.18
624.322	49.25
624.656	49.31
624.99	49.38
625.323	49.45
625.657	49.5
625.99	49.55
626.324	49.6
626.657	49.67
626.991	49.73
627.324	49.77
627.658	49.81
627.991	49.86
628.324	49.88
628.657	49.9
628.991	49.96
629.324	49.99
629.657	50.05
629.99	50.06
630.323	50.09
630.656	50.08
630.989	50.09
631.322	50.08
631.655	50.11
631.987	50.1
632.32	50.13
632.653	50.15
632.986	50.17
633.318	50.15
633.651	50.17
633.984	50.17
634.316	50.19
634.649	50.19
634.981	50.21
635.313	50.25
635.646	50.29
635.978	50.26
636.31	50.29
636.643	50.29
636.975	50.3
637.307	50.3
637.639	50.35
637.971	50.37
638.303	50.4
638.635	50.4
638.967	50.41
639.299	50.39
639.631	50.39
639.963	50.45
640.295	50.5
640.626	50.53
640.958	50.59
641.29	50.62
641.621	50.66
641.953	50.7
642.285	50.72
642.616	50.73
642.948	50.78
643.279	50.82
643.61	50.85
643.942	50.87
644.273	50.91
644.604	50.96
644.936	51
645.267	51.03
645.598	51.1
645.929	51.17
646.26	51.22
646.591	51.28
646.922	51.31
647.253	51.33
647.584	51.36
647.915	51.41
648.245	51.46
648.576	51.49
648.907	51.52
649.238	51.56
649.568	51.62
649.899	51.67
650.229	51.71
650.56	51.74
650.89	51.8
651.221	51.85
651.551	51.9
651.882	51.95
652.212	51.97
652.542	51.99
652.872	52.02
653.203	52.07
653.533	52.1
653.863	52.15
654.193	52.19
654.523	52.21
654.853	52.24
655.183	52.27
655.513	52.34
655.843	52.37
656.172	52.41
656.502	52.46
656.832	52.47
657.162	52.48
657.491	52.54
657.821	52.54
658.15	52.57
658.48	52.56
658.809	52.56
659.139	52.56
659.468	52.57
659.798	52.58
660.127	52.61
660.456	52.66
660.785	52.67
661.115	52.68
661.444	52.65
661.773	52.63
662.102	52.62
662.431	52.62
662.76	52.64
663.089	52.62
663.418	52.61
663.747	52.64
664.076	52.63
664.404	52.6
664.733	52.65
665.062	52.66
665.39	52.68
665.719	52.72
666.048	52.77
666.376	52.82
666.705	52.84
667.033	52.82
667.362	52.82
667.69	52.82
668.018	52.84
668.347	52.93
668.675	53
669.003	53.03
669.331	53.04
669.659	53.05
669.987	53.07
670.315	53.1
670.643	53.12
670.971	53.16
671.299	53.17
