Data from UWBM59333_Reflection_00002.txt Node
Date: Sun May 02 13:47:28 EDT 2021
User: vgr7
Spectrometer: USB2G7710
Scans to average: 10
Trigger mode: 4
Integration Time (sec): 1.000000E-1
Electric dark correction enabled: true
Boxcar width: 20
XAxis mode: Wavelengths
Number of Pixels in Spectrum: 2048
>>>>>Begin Spectral Data<<<<<
177.721	98.19
178.105	103.92
178.488	103.39
178.871	108.33
179.254	94.05
179.636	80.17
180.019	62.08
180.402	48.64
180.785	42.01
181.168	42.51
181.55	38.95
181.933	41.29
182.316	37.84
182.698	39.31
183.081	36.22
183.463	37.37
183.846	30.85
184.228	32.14
184.611	32.33
184.993	31.18
185.376	29.11
185.758	30.91
186.14	31.77
186.522	27.52
186.904	26.3
187.287	27.42
187.669	25.37
188.051	27.17
188.433	27.53
188.815	26.33
189.197	26.1
189.579	26.53
189.961	26.4
190.342	23.4
190.724	24.59
191.106	23.35
191.488	23.63
191.869	20.67
192.251	19.04
192.633	16.9
193.014	16.89
193.396	15.18
193.777	16.96
194.159	16.59
194.54	14.69
194.922	13.54
195.303	13.66
195.684	13.08
196.065	12.14
196.447	13.12
196.828	11.88
197.209	11.35
197.59	7.74
197.971	6.63
198.352	6.08
198.733	7.5
199.114	6.81
199.495	8.28
199.876	6.11
200.257	5.76
200.638	6.49
201.018	7.71
201.399	6.53
201.78	3.64
202.16	4.61
202.541	4.47
202.922	2.98
203.302	3.75
203.683	3.47
204.063	4.19
204.444	3.1
204.824	3.49
205.204	1.67
205.585	1.95
205.965	3.23
206.345	3.5
206.725	4.37
207.106	3.69
207.486	4.09
207.866	4.69
208.246	2.54
208.626	1.97
209.006	2.29
209.386	-0.47
209.766	-1.74
210.145	-1.89
210.525	-2
210.905	-0.73
211.285	-2.04
211.664	-0.32
212.044	-2.09
212.424	-3.49
212.803	-3.81
213.183	-1.88
213.562	-1.05
213.942	-1.51
214.321	-2.67
214.701	-3.07
215.08	-2.93
215.459	-1.84
215.838	-3.3
216.218	-5.21
216.597	-6.63
216.976	-6.25
217.355	-5.44
217.734	-6.13
218.113	-5.85
218.492	-5.84
218.871	-6.57
219.25	-6.88
219.629	-6.12
220.008	-4.79
220.387	-5.87
220.766	-4.42
221.144	-4.2
221.523	-2.56
221.902	-1.86
222.28	-2.24
222.659	-1.48
223.037	-1.53
223.416	-1.04
223.794	0.64
224.173	0.81
224.551	0.72
224.929	2.21
225.308	2.13
225.686	2.58
226.064	2.91
226.442	2.53
226.821	3.57
227.199	3.86
227.577	4.49
227.955	5.25
228.333	5.48
228.711	4.8
229.089	4.18
229.467	4.15
229.845	4.15
230.222	4.46
230.6	4.46
230.978	4.52
231.356	4.69
231.733	4.83
232.111	4.75
232.488	4.63
232.866	4.62
233.243	4.52
233.621	4.5
233.998	4.54
234.376	4.51
234.753	4.49
235.13	4.48
235.508	4.67
235.885	4.68
236.262	4.66
236.639	4.61
237.016	4.5
237.393	4.45
237.77	4.47
238.147	4.4
238.524	4.42
238.901	4.41
239.278	4.43
239.655	4.45
240.032	4.43
240.409	4.43
240.785	4.46
241.162	4.47
241.539	4.44
241.915	4.53
242.292	4.54
242.668	4.5
243.045	4.5
243.421	4.44
243.798	4.43
244.174	4.51
244.551	4.53
244.927	4.55
245.303	4.57
245.679	4.56
246.056	4.51
246.432	4.52
246.808	4.5
247.184	4.52
247.56	4.53
247.936	4.54
248.312	4.52
248.688	4.5
249.064	4.51
249.44	4.52
249.815	4.49
250.191	4.46
250.567	4.46
250.943	4.4
251.318	4.37
251.694	4.38
252.069	4.36
252.445	4.36
252.82	4.34
253.196	4.35
253.571	4.33
253.947	4.31
254.322	4.31
254.697	4.27
255.073	4.25
255.448	4.26
255.823	4.22
256.198	4.21
256.573	4.2
256.948	4.2
257.323	4.16
257.698	4.12
258.073	4.11
258.448	4.08
258.823	4.06
259.198	4.05
259.573	4.01
259.948	4.01
260.322	4.01
260.697	4
261.072	3.98
261.446	3.99
261.821	3.95
262.195	3.95
262.57	3.93
262.944	3.93
263.319	3.94
263.693	3.95
264.067	3.95
264.442	3.94
264.816	3.92
265.19	3.93
265.564	3.95
265.938	3.93
266.313	3.94
266.687	3.95
267.061	3.94
267.435	3.93
267.809	3.91
268.183	3.92
268.556	3.9
268.93	3.91
269.304	3.91
269.678	3.89
270.051	3.89
270.425	3.88
270.799	3.86
271.172	3.88
271.546	3.88
271.919	3.88
272.293	3.86
272.666	3.85
273.04	3.86
273.413	3.89
273.787	3.89
274.16	3.92
274.533	3.92
274.906	3.93
275.279	3.92
275.653	3.91
276.026	3.91
276.399	3.92
276.772	3.94
277.145	3.94
277.518	3.95
277.891	3.95
278.263	3.94
278.636	3.95
279.009	3.94
279.382	3.95
279.755	3.97
280.127	3.99
280.5	3.99
280.872	4
281.245	4.01
281.617	4.01
281.99	4.02
282.362	4
282.735	4
283.107	4.01
283.479	4
283.852	4.01
284.224	4.01
284.596	4.01
284.968	4.01
285.34	4.01
285.713	4.02
286.085	4.03
286.457	4.03
286.829	4.02
287.201	4.02
287.572	4.04
287.944	4.05
288.316	4.04
288.688	4.03
289.06	4.03
289.431	4.01
289.803	4.03
290.175	4.02
290.546	4.05
290.918	4.06
291.289	4.07
291.661	4.08
292.032	4.07
292.403	4.08
292.775	4.08
293.146	4.09
293.517	4.1
293.889	4.09
294.26	4.1
294.631	4.1
295.002	4.1
295.373	4.1
295.744	4.1
296.115	4.1
296.486	4.11
296.857	4.11
297.228	4.11
297.599	4.13
297.97	4.13
298.34	4.12
298.711	4.12
299.082	4.12
299.452	4.12
299.823	4.12
300.194	4.13
300.564	4.13
300.935	4.14
301.305	4.14
301.676	4.14
302.046	4.14
302.416	4.14
302.787	4.12
303.157	4.12
303.527	4.13
303.897	4.12
304.267	4.13
304.637	4.14
305.008	4.13
305.378	4.13
305.748	4.13
306.117	4.11
306.487	4.09
306.857	4.09
307.227	4.09
307.597	4.09
307.967	4.09
308.336	4.08
308.706	4.07
309.076	4.06
309.445	4.07
309.815	4.07
310.184	4.05
310.554	4.05
310.923	4.04
311.293	4.02
311.662	4.01
312.031	4.01
312.401	4
312.77	3.99
313.139	4
313.508	4.01
313.877	4.01
314.246	4
314.616	4
314.985	4.01
315.353	4.01
315.722	4
316.091	4
316.46	3.98
316.829	3.97
317.198	3.98
317.567	3.97
317.935	3.98
318.304	3.97
318.672	3.98
319.041	3.99
319.41	3.97
319.778	3.97
320.147	3.97
320.515	3.96
320.883	3.95
321.252	3.94
321.62	3.95
321.988	3.94
322.357	3.94
322.725	3.94
323.093	3.94
323.461	3.94
323.829	3.95
324.197	3.96
324.565	3.94
324.933	3.94
325.301	3.94
325.669	3.93
326.037	3.92
326.405	3.93
326.772	3.93
327.14	3.92
327.508	3.91
327.875	3.91
328.243	3.9
328.61	3.89
328.978	3.87
329.346	3.87
329.713	3.88
330.08	3.88
330.448	3.86
330.815	3.86
331.182	3.84
331.55	3.85
331.917	3.85
332.284	3.82
332.651	3.81
333.018	3.81
333.385	3.81
333.752	3.79
334.119	3.77
334.486	3.77
334.853	3.77
335.22	3.77
335.587	3.78
335.954	3.78
336.32	3.77
336.687	3.76
337.054	3.76
337.42	3.75
337.787	3.75
338.153	3.74
338.52	3.74
338.886	3.71
339.253	3.71
339.619	3.71
339.986	3.72
340.352	3.72
340.718	3.73
341.084	3.73
341.451	3.72
341.817	3.72
342.183	3.74
342.549	3.75
342.915	3.75
343.281	3.76
343.647	3.77
344.013	3.76
344.379	3.77
344.745	3.76
345.11	3.76
345.476	3.77
345.842	3.77
346.208	3.79
346.573	3.79
346.939	3.79
347.304	3.81
347.67	3.82
348.035	3.82
348.401	3.81
348.766	3.82
349.132	3.82
349.497	3.82
349.862	3.82
350.228	3.83
350.593	3.82
350.958	3.82
351.323	3.83
351.688	3.84
352.053	3.83
352.418	3.83
352.783	3.83
353.148	3.82
353.513	3.83
353.878	3.83
354.243	3.83
354.608	3.83
354.972	3.83
355.337	3.83
355.702	3.83
356.066	3.83
356.431	3.83
356.795	3.82
357.16	3.8
357.524	3.81
357.889	3.8
358.253	3.8
358.618	3.81
358.982	3.81
359.346	3.81
359.71	3.81
360.075	3.82
360.439	3.82
360.803	3.82
361.167	3.81
361.531	3.82
361.895	3.81
362.259	3.8
362.623	3.81
362.987	3.8
363.351	3.81
363.714	3.81
364.078	3.81
364.442	3.81
364.806	3.81
365.169	3.81
365.533	3.81
365.896	3.81
366.26	3.82
366.623	3.81
366.987	3.81
367.35	3.82
367.714	3.81
368.077	3.82
368.44	3.82
368.803	3.82
369.167	3.82
369.53	3.82
369.893	3.81
370.256	3.81
370.619	3.8
370.982	3.81
371.345	3.82
371.708	3.83
372.071	3.84
372.434	3.84
372.797	3.84
373.159	3.83
373.522	3.83
373.885	3.83
374.247	3.83
374.61	3.83
374.973	3.82
375.335	3.82
375.698	3.82
376.06	3.81
376.423	3.81
376.785	3.81
377.147	3.81
377.51	3.81
377.872	3.81
378.234	3.81
378.596	3.81
378.958	3.8
379.321	3.8
379.683	3.8
380.045	3.8
380.407	3.8
380.769	3.79
381.13	3.79
381.492	3.8
381.854	3.8
382.216	3.8
382.578	3.81
382.939	3.81
383.301	3.81
383.663	3.81
384.024	3.81
384.386	3.82
384.747	3.82
385.109	3.82
385.47	3.82
385.832	3.82
386.193	3.81
386.554	3.81
386.916	3.81
387.277	3.8
387.638	3.8
387.999	3.8
388.36	3.8
388.721	3.8
389.082	3.79
389.443	3.79
389.804	3.79
390.165	3.79
390.526	3.79
390.887	3.79
391.248	3.79
391.609	3.79
391.969	3.79
392.33	3.79
392.691	3.79
393.051	3.8
393.412	3.8
393.772	3.8
394.133	3.8
394.493	3.8
394.854	3.8
395.214	3.8
395.574	3.8
395.935	3.8
396.295	3.79
396.655	3.79
397.015	3.79
397.376	3.78
397.736	3.78
398.096	3.78
398.456	3.78
398.816	3.78
399.176	3.78
399.535	3.78
399.895	3.78
400.255	3.78
400.615	3.78
400.975	3.78
401.334	3.78
401.694	3.78
402.054	3.79
402.413	3.79
402.773	3.79
403.132	3.79
403.492	3.79
403.851	3.8
404.211	3.8
404.57	3.8
404.929	3.8
405.288	3.8
405.648	3.8
406.007	3.81
406.366	3.81
406.725	3.81
407.084	3.81
407.443	3.81
407.802	3.82
408.161	3.82
408.52	3.82
408.879	3.82
409.238	3.82
409.596	3.83
409.955	3.83
410.314	3.84
410.673	3.84
411.031	3.84
411.39	3.85
411.748	3.86
412.107	3.86
412.465	3.88
412.824	3.9
413.182	3.93
413.54	3.95
413.899	3.98
414.257	4.02
414.615	4.06
414.974	4.09
415.332	4.13
415.69	4.17
416.048	4.2
416.406	4.24
416.764	4.27
417.122	4.3
417.48	4.34
417.838	4.37
418.195	4.39
418.553	4.42
418.911	4.43
419.269	4.45
419.626	4.45
419.984	4.44
420.342	4.43
420.699	4.42
421.057	4.4
421.414	4.39
421.772	4.38
422.129	4.37
422.486	4.36
422.844	4.36
423.201	4.36
423.558	4.36
423.915	4.36
424.273	4.36
424.63	4.36
424.987	4.36
425.344	4.36
425.701	4.36
426.058	4.36
426.415	4.37
426.772	4.37
427.128	4.36
427.485	4.35
427.842	4.34
428.199	4.33
428.555	4.31
428.912	4.29
429.269	4.26
429.625	4.24
429.982	4.21
430.338	4.19
430.695	4.16
431.051	4.13
431.407	4.11
431.764	4.09
432.12	4.08
432.476	4.07
432.832	4.06
433.189	4.06
433.545	4.06
433.901	4.07
434.257	4.09
434.613	4.12
434.969	4.14
435.325	4.17
435.681	4.21
436.036	4.23
436.392	4.25
436.748	4.27
437.104	4.28
437.459	4.3
437.815	4.32
438.171	4.34
438.526	4.37
438.882	4.4
439.237	4.44
439.593	4.48
439.948	4.51
440.304	4.54
440.659	4.57
441.014	4.59
441.369	4.62
441.725	4.64
442.08	4.66
442.435	4.67
442.79	4.68
443.145	4.68
443.5	4.68
443.855	4.69
444.21	4.69
444.565	4.69
444.92	4.68
445.275	4.67
445.629	4.67
445.984	4.66
446.339	4.64
446.693	4.63
447.048	4.61
447.403	4.6
447.757	4.58
448.112	4.56
448.466	4.54
448.82	4.51
449.175	4.49
449.529	4.47
449.883	4.45
450.238	4.42
450.592	4.42
450.946	4.41
451.3	4.41
451.654	4.42
452.008	4.42
452.362	4.42
452.716	4.43
453.07	4.43
453.424	4.42
453.778	4.41
454.132	4.4
454.486	4.39
454.839	4.38
455.193	4.36
455.547	4.35
455.9	4.32
456.254	4.3
456.607	4.27
456.961	4.24
457.314	4.22
457.668	4.21
458.021	4.21
458.375	4.2
458.728	4.2
459.081	4.2
459.434	4.21
459.787	4.21
460.141	4.22
460.494	4.23
460.847	4.24
461.2	4.25
461.553	4.25
461.906	4.26
462.259	4.26
462.611	4.26
462.964	4.26
463.317	4.27
463.67	4.27
464.022	4.28
464.375	4.29
464.728	4.3
465.08	4.3
465.433	4.3
465.785	4.3
466.138	4.29
466.49	4.27
466.843	4.25
467.195	4.23
467.547	4.2
467.899	4.18
468.252	4.15
468.604	4.12
468.956	4.1
469.308	4.09
469.66	4.08
470.012	4.08
470.364	4.08
470.716	4.08
471.068	4.1
471.42	4.12
471.772	4.14
472.123	4.15
472.475	4.16
472.827	4.17
473.178	4.18
473.53	4.18
473.882	4.2
474.233	4.23
474.585	4.26
474.936	4.33
475.288	4.42
475.639	4.53
475.99	4.67
476.342	4.82
476.693	4.98
477.044	5.15
477.395	5.33
477.746	5.51
478.097	5.68
478.448	5.86
478.8	6.04
479.15	6.2
479.501	6.36
479.852	6.5
480.203	6.63
480.554	6.76
480.905	6.88
481.255	6.99
481.606	7.1
481.957	7.21
482.307	7.31
482.658	7.4
483.009	7.49
483.359	7.58
483.709	7.67
484.06	7.75
484.41	7.83
484.761	7.91
485.111	7.98
485.461	8.05
485.811	8.12
486.162	8.18
486.512	8.23
486.862	8.27
487.212	8.3
487.562	8.32
487.912	8.33
488.262	8.33
488.612	8.33
488.961	8.31
489.311	8.26
489.661	8.19
490.011	8.1
490.36	8
490.71	7.87
491.06	7.74
491.409	7.59
491.759	7.44
492.108	7.28
492.458	7.12
492.807	6.95
493.157	6.78
493.506	6.62
493.855	6.46
494.204	6.31
494.554	6.17
494.903	6.04
495.252	5.92
495.601	5.8
495.95	5.68
496.299	5.57
496.648	5.47
496.997	5.37
497.346	5.28
497.695	5.19
498.043	5.1
498.392	5.01
498.741	4.93
499.09	4.85
499.438	4.77
499.787	4.7
500.135	4.63
500.484	4.57
500.832	4.52
501.181	4.48
501.529	4.46
501.878	4.44
502.226	4.43
502.574	4.43
502.923	4.43
503.271	4.43
503.619	4.43
503.967	4.43
504.315	4.43
504.663	4.42
505.011	4.42
505.359	4.41
505.707	4.41
506.055	4.41
506.403	4.41
506.751	4.41
507.098	4.42
507.446	4.42
507.794	4.43
508.141	4.44
508.489	4.45
508.837	4.46
509.184	4.48
509.531	4.49
509.879	4.5
510.226	4.52
510.574	4.54
510.921	4.56
511.268	4.57
511.616	4.59
511.963	4.62
512.31	4.64
512.657	4.66
513.004	4.68
513.351	4.7
513.698	4.72
514.045	4.73
514.392	4.73
514.739	4.73
515.086	4.73
515.432	4.73
515.779	4.72
516.126	4.72
516.473	4.72
516.819	4.72
517.166	4.73
517.512	4.74
517.859	4.75
518.205	4.77
518.552	4.8
518.898	4.83
519.245	4.87
519.591	4.93
519.937	5
520.283	5.1
520.629	5.2
520.976	5.32
521.322	5.44
521.668	5.57
522.014	5.7
522.36	5.83
522.706	5.95
523.052	6.07
523.398	6.18
523.743	6.28
524.089	6.37
524.435	6.44
524.781	6.51
525.126	6.57
525.472	6.63
525.817	6.69
526.163	6.74
526.509	6.78
526.854	6.83
527.199	6.88
527.545	6.92
527.89	6.98
528.235	7.03
528.581	7.08
528.926	7.12
529.271	7.16
529.616	7.2
529.961	7.24
530.306	7.27
530.651	7.3
530.996	7.32
531.341	7.33
531.686	7.34
532.031	7.34
532.376	7.34
532.721	7.34
533.065	7.35
533.41	7.36
533.755	7.35
534.099	7.34
534.444	7.31
534.788	7.28
535.133	7.24
535.477	7.19
535.822	7.13
536.166	7.08
536.51	7.01
536.855	6.93
537.199	6.85
537.543	6.77
537.887	6.69
538.231	6.63
538.576	6.57
538.92	6.51
539.264	6.45
539.608	6.39
539.951	6.33
540.295	6.26
540.639	6.2
540.983	6.13
541.327	6.06
541.671	5.99
542.014	5.93
542.358	5.87
542.701	5.83
543.045	5.79
543.389	5.77
543.732	5.74
544.075	5.72
544.419	5.7
544.762	5.69
545.105	5.67
545.449	5.66
545.792	5.65
546.135	5.65
546.478	5.63
546.821	5.61
547.165	5.58
547.508	5.54
547.851	5.49
548.194	5.43
548.536	5.37
548.879	5.3
549.222	5.22
549.565	5.15
549.908	5.07
550.25	5
550.593	4.94
550.936	4.89
551.278	4.85
551.621	4.82
551.963	4.79
552.306	4.76
552.648	4.74
552.991	4.73
553.333	4.71
553.675	4.71
554.017	4.7
554.36	4.7
554.702	4.71
555.044	4.72
555.386	4.73
555.728	4.75
556.07	4.76
556.412	4.78
556.754	4.78
557.096	4.79
557.438	4.79
557.78	4.79
558.121	4.8
558.463	4.8
558.805	4.8
559.147	4.8
559.488	4.81
559.83	4.81
560.171	4.81
560.513	4.81
560.854	4.82
561.196	4.82
561.537	4.82
561.878	4.82
562.22	4.82
562.561	4.82
562.902	4.82
563.243	4.83
563.584	4.83
563.925	4.83
564.266	4.83
564.607	4.83
564.948	4.83
565.289	4.83
565.63	4.84
565.971	4.84
566.312	4.85
566.653	4.85
566.993	4.86
567.334	4.86
567.675	4.86
568.015	4.86
568.356	4.87
568.696	4.87
569.037	4.87
569.377	4.87
569.718	4.88
570.058	4.88
570.398	4.88
570.739	4.88
571.079	4.88
571.419	4.88
571.759	4.88
572.099	4.88
572.439	4.88
572.779	4.88
573.119	4.88
573.459	4.88
573.799	4.89
574.139	4.89
574.479	4.89
574.819	4.89
575.158	4.89
575.498	4.89
575.838	4.89
576.177	4.89
576.517	4.89
576.856	4.89
577.196	4.89
577.535	4.89
577.875	4.89
578.214	4.9
578.553	4.9
578.893	4.9
579.232	4.9
579.571	4.9
579.91	4.9
580.25	4.89
580.589	4.89
580.928	4.89
581.267	4.89
581.606	4.89
581.945	4.89
582.283	4.9
582.622	4.9
582.961	4.91
583.3	4.91
583.639	4.9
583.977	4.9
584.316	4.91
584.654	4.91
584.993	4.91
585.332	4.92
585.67	4.92
586.008	4.91
586.347	4.91
586.685	4.92
587.024	4.92
587.362	4.92
587.7	4.92
588.038	4.93
588.376	4.93
588.715	4.93
589.053	4.93
589.391	4.93
589.729	4.93
590.067	4.94
590.404	4.94
590.742	4.95
591.08	4.94
591.418	4.95
591.756	4.95
592.093	4.95
592.431	4.95
592.769	4.96
593.106	4.96
593.444	4.97
593.781	4.97
594.119	4.97
594.456	4.97
594.793	4.98
595.131	4.98
595.468	4.97
595.805	4.97
596.143	4.97
596.48	4.97
596.817	4.97
597.154	4.98
597.491	4.98
597.828	4.99
598.165	4.98
598.502	4.99
598.839	4.99
599.176	4.99
599.512	4.99
599.849	5
600.186	5
600.523	5.01
600.859	5.01
601.196	5.01
601.532	5.01
601.869	5.01
602.205	5.02
602.542	5.02
602.878	5.02
603.215	5.03
603.551	5.03
603.887	5.04
604.223	5.04
604.56	5.04
604.896	5.04
605.232	5.04
605.568	5.05
605.904	5.05
606.24	5.05
606.576	5.05
606.912	5.05
607.248	5.05
607.583	5.04
607.919	5.05
608.255	5.05
608.591	5.05
608.926	5.05
609.262	5.06
609.597	5.06
609.933	5.06
610.268	5.06
610.604	5.06
610.939	5.05
611.275	5.05
611.61	5.05
611.945	5.06
612.281	5.06
612.616	5.05
612.951	5.05
613.286	5.05
613.621	5.05
613.956	5.05
614.291	5.05
614.626	5.05
614.961	5.06
615.296	5.06
615.631	5.06
615.966	5.06
616.3	5.06
616.635	5.06
616.97	5.06
617.304	5.06
617.639	5.07
617.973	5.07
618.308	5.07
618.642	5.07
618.977	5.07
619.311	5.07
619.646	5.07
619.98	5.07
620.314	5.08
620.648	5.08
620.983	5.09
621.317	5.1
621.651	5.1
621.985	5.1
622.319	5.11
622.653	5.11
622.987	5.12
623.321	5.12
623.655	5.13
623.988	5.14
624.322	5.14
624.656	5.15
624.99	5.15
625.323	5.16
625.657	5.15
625.99	5.16
626.324	5.16
626.657	5.16
626.991	5.17
627.324	5.16
627.658	5.17
627.991	5.17
628.324	5.17
628.657	5.17
628.991	5.18
629.324	5.18
629.657	5.19
629.99	5.19
630.323	5.19
630.656	5.19
630.989	5.19
631.322	5.19
631.655	5.2
631.987	5.2
632.32	5.2
632.653	5.21
632.986	5.21
633.318	5.22
633.651	5.22
633.984	5.22
634.316	5.22
634.649	5.22
634.981	5.22
635.313	5.22
635.646	5.22
635.978	5.23
636.31	5.23
636.643	5.24
636.975	5.25
637.307	5.25
637.639	5.25
637.971	5.24
638.303	5.24
638.635	5.24
638.967	5.24
639.299	5.24
639.631	5.24
639.963	5.25
640.295	5.26
640.626	5.26
640.958	5.26
641.29	5.27
641.621	5.27
641.953	5.28
642.285	5.27
642.616	5.28
642.948	5.28
643.279	5.28
643.61	5.29
643.942	5.3
644.273	5.3
644.604	5.3
644.936	5.3
645.267	5.31
645.598	5.31
645.929	5.32
646.26	5.33
646.591	5.33
646.922	5.32
647.253	5.33
647.584	5.34
647.915	5.34
648.245	5.35
648.576	5.35
648.907	5.35
649.238	5.35
649.568	5.35
649.899	5.34
650.229	5.34
650.56	5.34
650.89	5.35
651.221	5.35
651.551	5.36
651.882	5.37
652.212	5.37
652.542	5.38
652.872	5.38
653.203	5.39
653.533	5.39
653.863	5.39
654.193	5.4
654.523	5.4
654.853	5.41
655.183	5.41
655.513	5.42
655.843	5.42
656.172	5.42
656.502	5.43
656.832	5.43
657.162	5.42
657.491	5.42
657.821	5.42
658.15	5.43
658.48	5.44
658.809	5.44
659.139	5.44
659.468	5.44
659.798	5.45
660.127	5.45
660.456	5.46
660.785	5.46
661.115	5.46
661.444	5.47
661.773	5.48
662.102	5.48
662.431	5.49
662.76	5.49
663.089	5.5
663.418	5.52
663.747	5.52
664.076	5.53
664.404	5.53
664.733	5.54
665.062	5.55
665.39	5.56
665.719	5.57
666.048	5.58
666.376	5.59
666.705	5.59
667.033	5.59
667.362	5.6
667.69	5.61
668.018	5.61
668.347	5.62
668.675	5.63
669.003	5.64
669.331	5.64
669.659	5.65
669.987	5.65
670.315	5.65
670.643	5.67
670.971	5.67
671.299	5.67
671.627	5.67
671.955	5.67
672.283	5.68
672.61	5.68
672.938	5.68
673.266	5.69
673.593	5.69
673.921	5.69
674.249	5.7
674.576	5.7
674.904	5.71
675.231	5.71
675.558	5.72
675.886	5.72
676.213	5.73
676.54	5.73
676.867	5.72
677.195	5.72
677.522	5.71
677.849	5.71
678.176	5.71
678.503	5.7
678.83	5.71
679.157	5.7
679.484	5.7
679.81	5.71
680.137	5.71
680.464	5.71
680.791	5.72
681.117	5.72
681.444	5.73
681.771	5.73
682.097	5.72
