Data from UWBM86267_Reflection_00005.txt Node
Date: Sun May 02 14:07:36 EDT 2021
User: vgr7
Spectrometer: USB2G7710
Scans to average: 10
Trigger mode: 4
Integration Time (sec): 1.000000E-1
Electric dark correction enabled: true
Boxcar width: 20
XAxis mode: Wavelengths
Number of Pixels in Spectrum: 2048
>>>>>Begin Spectral Data<<<<<
177.721	132.57
178.105	148
178.488	215.96
178.871	328.36
179.254	189.55
179.636	141.97
180.019	124.81
180.402	96.6
180.785	62.8
181.168	56.38
181.55	30.89
181.933	32.28
182.316	27.75
182.698	20.08
183.081	15.42
183.463	12.68
183.846	7.33
184.228	8.87
184.611	6.55
184.993	9.45
185.376	13.45
185.758	16.94
186.14	20.93
186.522	19.86
186.904	22.91
187.287	23.14
187.669	22.86
188.051	20.42
188.433	20.16
188.815	17.83
189.197	18.44
189.579	16.65
189.961	14.65
190.342	14.92
190.724	15.14
191.106	15.04
191.488	16.37
191.869	13.14
192.251	10.57
192.633	9.53
193.014	9.19
193.396	5.79
193.777	4.47
194.159	2.42
194.54	0.1
194.922	-2.85
195.303	-2.81
195.684	-3.69
196.065	-3.16
196.447	-1.55
196.828	-1.85
197.209	-0.95
197.59	-4.81
197.971	-4.61
198.352	-3.77
198.733	-1.5
199.114	-0.66
199.495	1.76
199.876	1.29
200.257	1.68
200.638	0.35
201.018	1.01
201.399	1.64
201.78	-0.65
202.16	-2.56
202.541	-3.65
202.922	-4.77
203.302	-5.29
203.683	-5.8
204.063	-4.47
204.444	-4.97
204.824	-5.03
205.204	-5.71
205.585	-5.17
205.965	-4.38
206.345	-3.58
206.725	-3.37
207.106	-3.78
207.486	-3.69
207.866	-2.61
208.246	-2.8
208.626	-3.44
209.006	-2.86
209.386	-1.6
209.766	-1.06
210.145	-2.06
210.525	-0.07
210.905	0.9
211.285	-0.51
211.664	0.67
212.044	-0.66
212.424	-2.2
212.803	-3.22
213.183	-1.62
213.562	-1.74
213.942	-1.24
214.321	-4.07
214.701	-4.9
215.08	-5.53
215.459	-6.28
215.838	-6.73
216.218	-6.69
216.597	-7.92
216.976	-6.36
217.355	-6.92
217.734	-6.05
218.113	-6.05
218.492	-6.25
218.871	-5.18
219.25	-4.53
219.629	-5.82
220.008	-5
220.387	-7.16
220.766	-6.09
221.144	-5.21
221.523	-5.66
221.902	-4.76
222.28	-5.37
222.659	-5.4
223.037	-5.93
223.416	-5.36
223.794	-4.56
224.173	-3.98
224.551	-4.38
224.929	-3.33
225.308	-2.91
225.686	-2
226.064	-1.67
226.442	-1.42
226.821	-0.55
227.199	-0.14
227.577	-0.3
227.955	0.6
228.333	1.12
228.711	1.09
229.089	1.03
229.467	0.83
229.845	1.17
230.222	1.39
230.6	1.27
230.978	1.35
231.356	1.56
231.733	1.73
232.111	1.46
232.488	1.22
232.866	1.33
233.243	1.31
233.621	1.64
233.998	1.78
234.376	1.73
234.753	1.68
235.13	1.88
235.508	2.08
235.885	2.36
236.262	2.36
236.639	2.27
237.016	2.34
237.393	2.34
237.77	2.44
238.147	2.54
238.524	2.68
238.901	2.65
239.278	2.69
239.655	2.73
240.032	2.76
240.409	2.76
240.785	2.77
241.162	2.78
241.539	2.76
241.915	2.82
242.292	2.85
242.668	2.83
243.045	2.86
243.421	2.81
243.798	2.82
244.174	2.88
244.551	2.87
244.927	2.89
245.303	2.92
245.679	2.92
246.056	2.91
246.432	2.94
246.808	2.91
247.184	2.9
247.56	2.94
247.936	2.94
248.312	2.96
248.688	2.98
249.064	2.95
249.44	2.95
249.815	2.96
250.191	2.96
250.567	2.95
250.943	2.92
251.318	2.88
251.694	2.89
252.069	2.91
252.445	2.9
252.82	2.88
253.196	2.87
253.571	2.87
253.947	2.86
254.322	2.86
254.697	2.88
255.073	2.86
255.448	2.88
255.823	2.86
256.198	2.85
256.573	2.83
256.948	2.84
257.323	2.81
257.698	2.76
258.073	2.73
258.448	2.72
258.823	2.72
259.198	2.72
259.573	2.68
259.948	2.68
260.322	2.66
260.697	2.64
261.072	2.64
261.446	2.63
261.821	2.63
262.195	2.63
262.57	2.62
262.944	2.62
263.319	2.62
263.693	2.61
264.067	2.59
264.442	2.59
264.816	2.57
265.19	2.57
265.564	2.59
265.938	2.6
266.313	2.61
266.687	2.62
267.061	2.61
267.435	2.61
267.809	2.61
268.183	2.61
268.556	2.61
268.93	2.62
269.304	2.61
269.678	2.63
270.051	2.6
270.425	2.58
270.799	2.56
271.172	2.58
271.546	2.58
271.919	2.59
272.293	2.58
272.666	2.59
273.04	2.61
273.413	2.64
273.787	2.66
274.16	2.65
274.533	2.66
274.906	2.67
275.279	2.69
275.653	2.7
276.026	2.71
276.399	2.73
276.772	2.75
277.145	2.73
277.518	2.75
277.891	2.76
278.263	2.73
278.636	2.74
279.009	2.73
279.382	2.74
279.755	2.76
280.127	2.77
280.5	2.77
280.872	2.77
281.245	2.76
281.617	2.77
281.99	2.77
282.362	2.76
282.735	2.74
283.107	2.76
283.479	2.75
283.852	2.75
284.224	2.73
284.596	2.72
284.968	2.71
285.34	2.72
285.713	2.72
286.085	2.73
286.457	2.72
286.829	2.72
287.201	2.72
287.572	2.72
287.944	2.72
288.316	2.7
288.688	2.7
289.06	2.7
289.431	2.7
289.803	2.69
290.175	2.69
290.546	2.68
290.918	2.69
291.289	2.69
291.661	2.68
292.032	2.66
292.403	2.67
292.775	2.67
293.146	2.67
293.517	2.69
293.889	2.68
294.26	2.69
294.631	2.7
295.002	2.7
295.373	2.7
295.744	2.7
296.115	2.69
296.486	2.7
296.857	2.7
297.228	2.71
297.599	2.73
297.97	2.73
298.34	2.72
298.711	2.73
299.082	2.75
299.452	2.75
299.823	2.77
300.194	2.77
300.564	2.77
300.935	2.78
301.305	2.79
301.676	2.79
302.046	2.8
302.416	2.8
302.787	2.8
303.157	2.79
303.527	2.8
303.897	2.79
304.267	2.79
304.637	2.79
305.008	2.8
305.378	2.8
305.748	2.8
306.117	2.79
306.487	2.79
306.857	2.8
307.227	2.8
307.597	2.8
307.967	2.8
308.336	2.79
308.706	2.77
309.076	2.76
309.445	2.77
309.815	2.74
310.184	2.73
310.554	2.73
310.923	2.75
311.293	2.74
311.662	2.72
312.031	2.71
312.401	2.72
312.77	2.73
313.139	2.73
313.508	2.73
313.877	2.73
314.246	2.72
314.616	2.72
314.985	2.72
315.353	2.72
315.722	2.71
316.091	2.72
316.46	2.69
316.829	2.68
317.198	2.68
317.567	2.68
317.935	2.68
318.304	2.68
318.672	2.68
319.041	2.69
319.41	2.69
319.778	2.69
320.147	2.68
320.515	2.67
320.883	2.65
321.252	2.64
321.62	2.63
321.988	2.63
322.357	2.64
322.725	2.64
323.093	2.64
323.461	2.63
323.829	2.66
324.197	2.66
324.565	2.64
324.933	2.65
325.301	2.64
325.669	2.65
326.037	2.64
326.405	2.65
326.772	2.65
327.14	2.64
327.508	2.62
327.875	2.62
328.243	2.62
328.61	2.61
328.978	2.61
329.346	2.59
329.713	2.6
330.08	2.6
330.448	2.59
330.815	2.58
331.182	2.56
331.55	2.57
331.917	2.55
332.284	2.53
332.651	2.53
333.018	2.54
333.385	2.54
333.752	2.52
334.119	2.52
334.486	2.52
334.853	2.52
335.22	2.52
335.587	2.52
335.954	2.52
336.32	2.51
336.687	2.51
337.054	2.5
337.42	2.5
337.787	2.5
338.153	2.5
338.52	2.51
338.886	2.5
339.253	2.5
339.619	2.52
339.986	2.52
340.352	2.53
340.718	2.52
341.084	2.52
341.451	2.52
341.817	2.52
342.183	2.52
342.549	2.52
342.915	2.52
343.281	2.53
343.647	2.53
344.013	2.52
344.379	2.53
344.745	2.53
345.11	2.53
345.476	2.54
345.842	2.55
346.208	2.54
346.573	2.55
346.939	2.55
347.304	2.57
347.67	2.56
348.035	2.55
348.401	2.56
348.766	2.56
349.132	2.55
349.497	2.55
349.862	2.55
350.228	2.56
350.593	2.56
350.958	2.57
351.323	2.58
351.688	2.59
352.053	2.58
352.418	2.58
352.783	2.57
353.148	2.57
353.513	2.58
353.878	2.58
354.243	2.58
354.608	2.57
354.972	2.57
355.337	2.56
355.702	2.58
356.066	2.57
356.431	2.57
356.795	2.57
357.16	2.56
357.524	2.57
357.889	2.57
358.253	2.57
358.618	2.56
358.982	2.56
359.346	2.56
359.71	2.56
360.075	2.57
360.439	2.56
360.803	2.56
361.167	2.56
361.531	2.56
361.895	2.56
362.259	2.55
362.623	2.55
362.987	2.55
363.351	2.55
363.714	2.56
364.078	2.56
364.442	2.57
364.806	2.56
365.169	2.56
365.533	2.56
365.896	2.56
366.26	2.57
366.623	2.57
366.987	2.56
367.35	2.56
367.714	2.57
368.077	2.57
368.44	2.56
368.803	2.56
369.167	2.56
369.53	2.57
369.893	2.56
370.256	2.56
370.619	2.55
370.982	2.56
371.345	2.56
371.708	2.56
372.071	2.57
372.434	2.56
372.797	2.57
373.159	2.57
373.522	2.58
373.885	2.58
374.247	2.58
374.61	2.58
374.973	2.58
375.335	2.58
375.698	2.57
376.06	2.57
376.423	2.56
376.785	2.56
377.147	2.57
377.51	2.57
377.872	2.57
378.234	2.57
378.596	2.56
378.958	2.57
379.321	2.56
379.683	2.57
380.045	2.57
380.407	2.57
380.769	2.56
381.13	2.56
381.492	2.57
381.854	2.57
382.216	2.58
382.578	2.57
382.939	2.58
383.301	2.58
383.663	2.58
384.024	2.57
384.386	2.57
384.747	2.58
385.109	2.58
385.47	2.58
385.832	2.58
386.193	2.58
386.554	2.58
386.916	2.58
387.277	2.58
387.638	2.58
387.999	2.58
388.36	2.57
388.721	2.58
389.082	2.58
389.443	2.58
389.804	2.58
390.165	2.58
390.526	2.58
390.887	2.59
391.248	2.59
391.609	2.59
391.969	2.59
392.33	2.59
392.691	2.59
393.051	2.59
393.412	2.6
393.772	2.6
394.133	2.6
394.493	2.59
394.854	2.59
395.214	2.59
395.574	2.59
395.935	2.59
396.295	2.59
396.655	2.59
397.015	2.59
397.376	2.59
397.736	2.59
398.096	2.59
398.456	2.59
398.816	2.6
399.176	2.6
399.535	2.6
399.895	2.6
400.255	2.6
400.615	2.6
400.975	2.61
401.334	2.61
401.694	2.61
402.054	2.61
402.413	2.61
402.773	2.61
403.132	2.61
403.492	2.61
403.851	2.61
404.211	2.61
404.57	2.62
404.929	2.62
405.288	2.62
405.648	2.62
406.007	2.62
406.366	2.63
406.725	2.62
407.084	2.63
407.443	2.63
407.802	2.63
408.161	2.63
408.52	2.63
408.879	2.64
409.238	2.64
409.596	2.64
409.955	2.64
410.314	2.64
410.673	2.64
411.031	2.65
411.39	2.65
411.748	2.66
412.107	2.66
412.465	2.67
412.824	2.68
413.182	2.7
413.54	2.72
413.899	2.74
414.257	2.76
414.615	2.79
414.974	2.81
415.332	2.83
415.69	2.86
416.048	2.88
416.406	2.91
416.764	2.94
417.122	2.96
417.48	2.98
417.838	3
418.195	3.02
418.553	3.04
418.911	3.05
419.269	3.05
419.626	3.06
419.984	3.05
420.342	3.05
420.699	3.04
421.057	3.03
421.414	3.02
421.772	3.01
422.129	3.01
422.486	3.01
422.844	3.01
423.201	3.01
423.558	3.01
423.915	3.01
424.273	3.01
424.63	3.01
424.987	3.01
425.344	3.01
425.701	3.01
426.058	3.01
426.415	3.02
426.772	3.02
427.128	3.01
427.485	3.01
427.842	3
428.199	2.99
428.555	2.98
428.912	2.97
429.269	2.95
429.625	2.94
429.982	2.92
430.338	2.9
430.695	2.89
431.051	2.86
431.407	2.85
431.764	2.84
432.12	2.83
432.476	2.82
432.832	2.81
433.189	2.82
433.545	2.82
433.901	2.83
434.257	2.84
434.613	2.86
434.969	2.88
435.325	2.9
435.681	2.92
436.036	2.94
436.392	2.95
436.748	2.97
437.104	2.97
437.459	2.99
437.815	3
438.171	3.01
438.526	3.03
438.882	3.05
439.237	3.08
439.593	3.1
439.948	3.12
440.304	3.15
440.659	3.17
441.014	3.18
441.369	3.2
441.725	3.22
442.08	3.23
442.435	3.24
442.79	3.25
443.145	3.25
443.5	3.25
443.855	3.25
444.21	3.25
444.565	3.25
444.92	3.25
445.275	3.24
445.629	3.23
445.984	3.23
446.339	3.22
446.693	3.21
447.048	3.2
447.403	3.19
447.757	3.17
448.112	3.16
448.466	3.14
448.82	3.13
449.175	3.11
449.529	3.1
449.883	3.08
450.238	3.06
450.592	3.06
450.946	3.05
451.3	3.05
451.654	3.06
452.008	3.06
452.362	3.06
452.716	3.07
453.07	3.07
453.424	3.06
453.778	3.06
454.132	3.05
454.486	3.05
454.839	3.04
455.193	3.02
455.547	3.02
455.9	3
456.254	2.99
456.607	2.97
456.961	2.95
457.314	2.93
457.668	2.93
458.021	2.92
458.375	2.92
458.728	2.92
459.081	2.92
459.434	2.92
459.787	2.93
460.141	2.93
460.494	2.94
460.847	2.95
461.2	2.95
461.553	2.95
461.906	2.95
462.259	2.96
462.611	2.96
462.964	2.96
463.317	2.96
463.67	2.96
464.022	2.97
464.375	2.98
464.728	2.98
465.08	2.98
465.433	2.98
465.785	2.98
466.138	2.97
466.49	2.95
466.843	2.94
467.195	2.92
467.547	2.9
467.899	2.89
468.252	2.87
468.604	2.85
468.956	2.84
469.308	2.82
469.66	2.82
470.012	2.81
470.364	2.81
470.716	2.81
471.068	2.82
471.42	2.84
471.772	2.85
472.123	2.86
472.475	2.86
472.827	2.87
473.178	2.87
473.53	2.88
473.882	2.89
474.233	2.91
474.585	2.93
474.936	2.97
475.288	3.04
475.639	3.12
475.99	3.21
476.342	3.32
476.693	3.43
477.044	3.55
477.395	3.67
477.746	3.8
478.097	3.92
478.448	4.04
478.8	4.17
479.15	4.28
479.501	4.38
479.852	4.48
480.203	4.58
480.554	4.67
480.905	4.75
481.255	4.83
481.606	4.92
481.957	4.99
482.307	5.06
482.658	5.12
483.009	5.19
483.359	5.25
483.709	5.31
484.06	5.37
484.41	5.42
484.761	5.48
485.111	5.53
485.461	5.58
485.811	5.62
486.162	5.67
486.512	5.7
486.862	5.73
487.212	5.75
487.562	5.77
487.912	5.78
488.262	5.78
488.612	5.78
488.961	5.77
489.311	5.74
489.661	5.69
490.011	5.63
490.36	5.55
490.71	5.47
491.06	5.37
491.409	5.27
491.759	5.16
492.108	5.05
492.458	4.94
492.807	4.82
493.157	4.7
493.506	4.59
493.855	4.48
494.204	4.37
494.554	4.28
494.903	4.19
495.252	4.1
495.601	4.01
495.95	3.93
496.299	3.85
496.648	3.77
496.997	3.7
497.346	3.63
497.695	3.57
498.043	3.5
498.392	3.44
498.741	3.38
499.09	3.33
499.438	3.27
499.787	3.22
500.135	3.17
500.484	3.12
500.832	3.09
501.181	3.05
501.529	3.03
501.878	3.02
502.226	3.01
502.574	3
502.923	3
503.271	3
503.619	3
503.967	2.99
504.315	2.99
504.663	2.99
505.011	2.98
505.359	2.98
505.707	2.98
506.055	2.97
506.403	2.97
506.751	2.97
507.098	2.98
507.446	2.98
507.794	2.98
508.141	2.98
508.489	2.99
508.837	3
509.184	3.01
509.531	3.01
509.879	3.02
510.226	3.03
510.574	3.04
510.921	3.05
511.268	3.07
511.616	3.08
511.963	3.09
512.31	3.11
512.657	3.12
513.004	3.14
513.351	3.15
513.698	3.15
514.045	3.16
514.392	3.16
514.739	3.16
515.086	3.16
515.432	3.16
515.779	3.16
516.126	3.16
516.473	3.16
516.819	3.16
517.166	3.16
517.512	3.17
517.859	3.18
518.205	3.19
518.552	3.2
518.898	3.22
519.245	3.25
519.591	3.29
519.937	3.33
520.283	3.39
520.629	3.46
520.976	3.54
521.322	3.62
521.668	3.71
522.014	3.8
522.36	3.88
522.706	3.97
523.052	4.05
523.398	4.12
523.743	4.19
524.089	4.25
524.435	4.3
524.781	4.34
525.126	4.39
525.472	4.43
525.817	4.46
526.163	4.5
526.509	4.53
526.854	4.56
527.199	4.59
527.545	4.62
527.89	4.66
528.235	4.69
528.581	4.72
528.926	4.75
529.271	4.78
529.616	4.8
529.961	4.83
530.306	4.85
530.651	4.87
530.996	4.88
531.341	4.89
531.686	4.89
532.031	4.89
532.376	4.89
532.721	4.9
533.065	4.9
533.41	4.9
533.755	4.9
534.099	4.89
534.444	4.88
534.788	4.85
535.133	4.82
535.477	4.79
535.822	4.75
536.166	4.71
536.51	4.67
536.855	4.61
537.199	4.56
537.543	4.51
537.887	4.46
538.231	4.41
538.576	4.37
538.92	4.33
539.264	4.29
539.608	4.25
539.951	4.2
540.295	4.16
540.639	4.12
540.983	4.07
541.327	4.03
541.671	3.98
542.014	3.94
542.358	3.9
542.701	3.87
543.045	3.84
543.389	3.83
543.732	3.81
544.075	3.8
544.419	3.78
544.762	3.77
545.105	3.77
545.449	3.76
545.792	3.75
546.135	3.75
546.478	3.74
546.821	3.72
547.165	3.7
547.508	3.67
547.851	3.64
548.194	3.6
548.536	3.56
548.879	3.52
549.222	3.47
549.565	3.42
549.908	3.37
550.25	3.32
550.593	3.27
550.936	3.24
551.278	3.21
551.621	3.18
551.963	3.16
552.306	3.14
552.648	3.13
552.991	3.12
553.333	3.11
553.675	3.1
554.017	3.1
554.36	3.1
554.702	3.1
555.044	3.11
555.386	3.12
555.728	3.12
556.07	3.13
556.412	3.14
556.754	3.14
557.096	3.15
557.438	3.15
557.78	3.15
558.121	3.14
558.463	3.14
558.805	3.14
559.147	3.14
559.488	3.14
559.83	3.14
560.171	3.14
560.513	3.14
560.854	3.14
561.196	3.14
561.537	3.14
561.878	3.14
562.22	3.14
562.561	3.14
562.902	3.15
563.243	3.15
563.584	3.15
563.925	3.15
564.266	3.15
564.607	3.16
564.948	3.16
565.289	3.16
565.63	3.17
565.971	3.17
566.312	3.18
566.653	3.18
566.993	3.18
567.334	3.18
567.675	3.18
568.015	3.19
568.356	3.19
568.696	3.19
569.037	3.19
569.377	3.19
569.718	3.2
570.058	3.2
570.398	3.2
570.739	3.2
571.079	3.2
571.419	3.2
571.759	3.2
572.099	3.2
572.439	3.2
572.779	3.2
573.119	3.2
573.459	3.2
573.799	3.2
574.139	3.2
574.479	3.2
574.819	3.2
575.158	3.2
575.498	3.2
575.838	3.2
576.177	3.2
576.517	3.2
576.856	3.2
577.196	3.2
577.535	3.2
577.875	3.19
578.214	3.19
578.553	3.19
578.893	3.19
579.232	3.19
579.571	3.19
579.91	3.19
580.25	3.18
580.589	3.18
580.928	3.17
581.267	3.17
581.606	3.17
581.945	3.17
582.283	3.17
582.622	3.17
582.961	3.17
583.3	3.17
583.639	3.17
583.977	3.17
584.316	3.17
584.654	3.17
584.993	3.17
585.332	3.17
585.67	3.17
586.008	3.17
586.347	3.17
586.685	3.18
587.024	3.17
587.362	3.17
587.7	3.18
588.038	3.18
588.376	3.18
588.715	3.18
589.053	3.18
589.391	3.18
589.729	3.18
590.067	3.18
590.404	3.18
590.742	3.19
591.08	3.19
591.418	3.19
591.756	3.19
592.093	3.2
592.431	3.2
592.769	3.2
593.106	3.2
593.444	3.21
593.781	3.21
594.119	3.21
594.456	3.21
594.793	3.22
595.131	3.22
595.468	3.22
595.805	3.22
596.143	3.22
596.48	3.22
596.817	3.21
597.154	3.22
597.491	3.22
597.828	3.22
598.165	3.22
598.502	3.23
598.839	3.23
599.176	3.23
599.512	3.23
599.849	3.23
600.186	3.23
600.523	3.24
600.859	3.24
601.196	3.24
601.532	3.24
601.869	3.24
602.205	3.24
602.542	3.24
602.878	3.24
603.215	3.24
603.551	3.25
603.887	3.25
604.223	3.25
604.56	3.25
604.896	3.25
605.232	3.25
605.568	3.25
605.904	3.25
606.24	3.24
606.576	3.24
606.912	3.24
607.248	3.24
607.583	3.24
607.919	3.24
608.255	3.25
608.591	3.25
608.926	3.25
609.262	3.25
609.597	3.24
609.933	3.24
610.268	3.25
610.604	3.25
610.939	3.25
611.275	3.25
611.61	3.24
611.945	3.25
612.281	3.24
612.616	3.24
612.951	3.24
613.286	3.24
613.621	3.24
613.956	3.23
614.291	3.23
614.626	3.23
614.961	3.23
615.296	3.23
615.631	3.23
615.966	3.23
616.3	3.24
616.635	3.23
616.97	3.24
617.304	3.24
617.639	3.24
617.973	3.24
618.308	3.24
618.642	3.24
618.977	3.24
619.311	3.24
619.646	3.24
619.98	3.24
620.314	3.24
620.648	3.25
620.983	3.25
621.317	3.25
621.651	3.25
621.985	3.25
622.319	3.26
622.653	3.26
622.987	3.26
623.321	3.26
623.655	3.27
623.988	3.27
624.322	3.27
624.656	3.28
624.99	3.28
625.323	3.28
625.657	3.28
625.99	3.28
626.324	3.28
626.657	3.28
626.991	3.28
627.324	3.28
627.658	3.28
627.991	3.28
628.324	3.28
628.657	3.28
628.991	3.28
629.324	3.29
629.657	3.29
629.99	3.29
630.323	3.29
630.656	3.29
630.989	3.29
631.322	3.29
631.655	3.3
631.987	3.3
632.32	3.3
632.653	3.29
632.986	3.3
633.318	3.3
633.651	3.3
633.984	3.3
634.316	3.3
634.649	3.3
634.981	3.3
635.313	3.3
635.646	3.3
635.978	3.3
636.31	3.3
636.643	3.3
636.975	3.31
637.307	3.31
637.639	3.31
637.971	3.3
638.303	3.3
638.635	3.3
638.967	3.3
639.299	3.3
639.631	3.3
639.963	3.3
640.295	3.31
640.626	3.31
640.958	3.32
641.29	3.32
641.621	3.32
641.953	3.32
642.285	3.32
642.616	3.32
642.948	3.32
643.279	3.32
643.61	3.33
643.942	3.33
644.273	3.33
644.604	3.34
644.936	3.35
645.267	3.34
645.598	3.34
645.929	3.35
646.26	3.36
646.591	3.35
646.922	3.36
647.253	3.36
647.584	3.36
647.915	3.36
648.245	3.36
648.576	3.36
648.907	3.37
649.238	3.36
649.568	3.36
649.899	3.36
650.229	3.36
650.56	3.36
650.89	3.36
651.221	3.35
651.551	3.35
651.882	3.35
652.212	3.35
652.542	3.35
652.872	3.36
653.203	3.36
653.533	3.36
653.863	3.36
654.193	3.36
654.523	3.36
654.853	3.36
655.183	3.37
655.513	3.37
655.843	3.37
656.172	3.37
656.502	3.38
656.832	3.38
657.162	3.37
657.491	3.37
657.821	3.36
658.15	3.36
658.48	3.36
658.809	3.37
659.139	3.36
659.468	3.36
659.798	3.36
660.127	3.36
660.456	3.37
660.785	3.37
661.115	3.38
661.444	3.39
661.773	3.39
662.102	3.38
662.431	3.38
662.76	3.39
663.089	3.39
663.418	3.39
663.747	3.4
664.076	3.4
664.404	3.41
664.733	3.41
665.062	3.41
665.39	3.42
665.719	3.43
666.048	3.44
666.376	3.44
666.705	3.45
667.033	3.45
667.362	3.45
667.69	3.44
668.018	3.44
668.347	3.44
668.675	3.45
669.003	3.46
669.331	3.45
669.659	3.46
669.987	3.46
670.315	3.46
670.643	3.46
670.971	3.46
671.299	3.46
671.627	3.45
671.955	3.46
672.283	3.46
672.61	3.46
672.938	3.46
673.266	3.47
673.593	3.47
673.921	3.47
674.249	3.47
674.576	3.47
674.904	3.47
675.231	3.48
675.558	3.47
675.886	3.47
676.213	3.48
676.54	3.48
676.867	3.49
677.195	3.48
677.522	3.48
677.849	3.47
678.176	3.48
678.503	3.47
678.83	3.48
679.157	3.48
679.484	3.47
679.81	3.47
680.137	3.47
680.464	3.48
680.791	3.48
681.117	3.49
