Data from UWBM88853_Reflection_00007.txt Node
Date: Sun May 02 13:41:17 EDT 2021
User: vgr7
Spectrometer: USB2G7710
Scans to average: 10
Trigger mode: 4
Integration Time (sec): 1.000000E-1
Electric dark correction enabled: true
Boxcar width: 20
XAxis mode: Wavelengths
Number of Pixels in Spectrum: 2048
>>>>>Begin Spectral Data<<<<<
177.721	128.43
178.105	145.02
178.488	137.28
178.871	228.07
179.254	135.26
179.636	53.33
180.019	41.67
180.402	27.5
180.785	36.05
181.168	34.67
181.55	34.53
181.933	41.43
182.316	40.29
182.698	35.19
183.081	34.75
183.463	31.39
183.846	25.56
184.228	24.5
184.611	23.07
184.993	26.29
185.376	22.88
185.758	24.51
186.14	28.34
186.522	25.19
186.904	22.6
187.287	22.87
187.669	25.93
188.051	24.19
188.433	22.27
188.815	19.71
189.197	17.06
189.579	19.63
189.961	19.32
190.342	20.53
190.724	21.44
191.106	21.31
191.488	20.32
191.869	19.59
192.251	19.97
192.633	20.69
193.014	20.43
193.396	18.02
193.777	18.75
194.159	18.94
194.54	17.38
194.922	16.83
195.303	17.44
195.684	16.57
196.065	16.62
196.447	16.34
196.828	16.43
197.209	15.26
197.59	12.38
197.971	11.61
198.352	13.3
198.733	13.32
199.114	14.49
199.495	15.53
199.876	15.36
200.257	15.87
200.638	13.46
201.018	15.04
201.399	15.03
201.78	14.48
202.16	13.68
202.541	13.41
202.922	13.02
203.302	12.02
203.683	13.69
204.063	13.38
204.444	12.6
204.824	13.17
205.204	11.11
205.585	11.94
205.965	11.66
206.345	10.85
206.725	11.19
207.106	12.14
207.486	12.84
207.866	12.98
208.246	12.02
208.626	11.02
209.006	10.47
209.386	9.76
209.766	9.97
210.145	10.3
210.525	10.73
210.905	12.07
211.285	12.48
211.664	13.26
212.044	11.75
212.424	10.46
212.803	11.47
213.183	12.62
213.562	14.26
213.942	14.42
214.321	13.05
214.701	11.93
215.08	13.12
215.459	12.81
215.838	12.4
216.218	12.57
216.597	10.81
216.976	11.88
217.355	10.92
217.734	12.61
218.113	12.55
218.492	12.72
218.871	12.59
219.25	11.42
219.629	11.39
220.008	11.7
220.387	11.39
220.766	12.78
221.144	11.86
221.523	12.66
221.902	13.19
222.28	12.4
222.659	12.88
223.037	11.86
223.416	12.04
223.794	11.73
224.173	12.37
224.551	11.73
224.929	12.45
225.308	11.95
225.686	11.2
226.064	10.57
226.442	10.23
226.821	10.22
227.199	10.04
227.577	10.23
227.955	10.25
228.333	10.07
228.711	9.77
229.089	8.66
229.467	8.12
229.845	8.31
230.222	8.59
230.6	8.05
230.978	8.2
231.356	8.11
231.733	7.86
232.111	8.04
232.488	7.66
232.866	7.53
233.243	7.36
233.621	7.25
233.998	6.92
234.376	6.97
234.753	6.81
235.13	6.86
235.508	6.97
235.885	6.74
236.262	6.4
236.639	6.25
237.016	6.07
237.393	6.01
237.77	6.01
238.147	5.84
238.524	5.81
238.901	5.67
239.278	5.69
239.655	5.65
240.032	5.65
240.409	5.58
240.785	5.57
241.162	5.63
241.539	5.66
241.915	5.64
242.292	5.62
242.668	5.6
243.045	5.57
243.421	5.6
243.798	5.58
244.174	5.57
244.551	5.6
244.927	5.6
245.303	5.6
245.679	5.58
246.056	5.55
246.432	5.52
246.808	5.48
247.184	5.5
247.56	5.49
247.936	5.49
248.312	5.48
248.688	5.43
249.064	5.43
249.44	5.44
249.815	5.39
250.191	5.36
250.567	5.34
250.943	5.3
251.318	5.3
251.694	5.34
252.069	5.33
252.445	5.32
252.82	5.28
253.196	5.24
253.571	5.21
253.947	5.2
254.322	5.18
254.697	5.15
255.073	5.1
255.448	5.11
255.823	5.07
256.198	5.06
256.573	5.03
256.948	5.01
257.323	4.99
257.698	4.96
258.073	4.91
258.448	4.9
258.823	4.86
259.198	4.84
259.573	4.81
259.948	4.79
260.322	4.77
260.697	4.74
261.072	4.7
261.446	4.69
261.821	4.68
262.195	4.68
262.57	4.65
262.944	4.65
263.319	4.63
263.693	4.63
264.067	4.63
264.442	4.61
264.816	4.59
265.19	4.61
265.564	4.61
265.938	4.59
266.313	4.6
266.687	4.58
267.061	4.56
267.435	4.55
267.809	4.56
268.183	4.56
268.556	4.55
268.93	4.57
269.304	4.57
269.678	4.58
270.051	4.56
270.425	4.56
270.799	4.53
271.172	4.54
271.546	4.54
271.919	4.55
272.293	4.54
272.666	4.53
273.04	4.54
273.413	4.59
273.787	4.6
274.16	4.59
274.533	4.59
274.906	4.61
275.279	4.61
275.653	4.61
276.026	4.61
276.399	4.63
276.772	4.66
277.145	4.65
277.518	4.65
277.891	4.67
278.263	4.65
278.636	4.66
279.009	4.64
279.382	4.66
279.755	4.67
280.127	4.69
280.5	4.69
280.872	4.71
281.245	4.71
281.617	4.72
281.99	4.74
282.362	4.74
282.735	4.75
283.107	4.76
283.479	4.76
283.852	4.78
284.224	4.78
284.596	4.77
284.968	4.79
285.34	4.81
285.713	4.83
286.085	4.85
286.457	4.87
286.829	4.87
287.201	4.9
287.572	4.92
287.944	4.95
288.316	4.96
288.688	4.96
289.06	4.99
289.431	5.03
289.803	5.07
290.175	5.1
290.546	5.13
290.918	5.17
291.289	5.21
291.661	5.24
292.032	5.26
292.403	5.29
292.775	5.33
293.146	5.37
293.517	5.41
293.889	5.45
294.26	5.51
294.631	5.55
295.002	5.6
295.373	5.64
295.744	5.68
296.115	5.72
296.486	5.78
296.857	5.83
297.228	5.88
297.599	5.94
297.97	5.98
298.34	6
298.711	6.07
299.082	6.12
299.452	6.17
299.823	6.21
300.194	6.26
300.564	6.32
300.935	6.37
301.305	6.43
301.676	6.48
302.046	6.54
302.416	6.59
302.787	6.63
303.157	6.69
303.527	6.76
303.897	6.83
304.267	6.89
304.637	6.95
305.008	7.02
305.378	7.09
305.748	7.16
306.117	7.24
306.487	7.32
306.857	7.4
307.227	7.47
307.597	7.55
307.967	7.62
308.336	7.69
308.706	7.75
309.076	7.82
309.445	7.89
309.815	7.94
310.184	8.01
310.554	8.08
310.923	8.15
311.293	8.2
311.662	8.26
312.031	8.32
312.401	8.39
312.77	8.44
313.139	8.5
313.508	8.58
313.877	8.64
314.246	8.7
314.616	8.77
314.985	8.85
315.353	8.9
315.722	8.95
316.091	9.03
316.46	9.07
316.829	9.14
317.198	9.23
317.567	9.32
317.935	9.41
318.304	9.47
318.672	9.55
319.041	9.63
319.41	9.71
319.778	9.81
320.147	9.87
320.515	9.93
320.883	9.99
321.252	10.03
321.62	10.1
321.988	10.16
322.357	10.22
322.725	10.27
323.093	10.32
323.461	10.37
323.829	10.42
324.197	10.49
324.565	10.53
324.933	10.58
325.301	10.62
325.669	10.66
326.037	10.7
326.405	10.74
326.772	10.78
327.14	10.8
327.508	10.83
327.875	10.87
328.243	10.92
328.61	10.95
328.978	10.99
329.346	11.02
329.713	11.07
330.08	11.11
330.448	11.14
330.815	11.18
331.182	11.2
331.55	11.24
331.917	11.27
332.284	11.28
332.651	11.31
333.018	11.34
333.385	11.39
333.752	11.43
334.119	11.47
334.486	11.51
334.853	11.53
335.22	11.58
335.587	11.62
335.954	11.67
336.32	11.71
336.687	11.73
337.054	11.76
337.42	11.81
337.787	11.84
338.153	11.89
338.52	11.91
338.886	11.94
339.253	11.97
339.619	12
339.986	12.03
340.352	12.06
340.718	12.08
341.084	12.1
341.451	12.14
341.817	12.17
342.183	12.21
342.549	12.24
342.915	12.27
343.281	12.29
343.647	12.32
344.013	12.33
344.379	12.35
344.745	12.35
345.11	12.37
345.476	12.39
345.842	12.42
346.208	12.44
346.573	12.46
346.939	12.48
347.304	12.5
347.67	12.53
348.035	12.54
348.401	12.56
348.766	12.58
349.132	12.58
349.497	12.59
349.862	12.6
350.228	12.6
350.593	12.6
350.958	12.6
351.323	12.61
351.688	12.61
352.053	12.6
352.418	12.6
352.783	12.58
353.148	12.57
353.513	12.57
353.878	12.55
354.243	12.53
354.608	12.53
354.972	12.51
355.337	12.5
355.702	12.49
356.066	12.46
356.431	12.44
356.795	12.42
357.16	12.39
357.524	12.37
357.889	12.35
358.253	12.32
358.618	12.27
358.982	12.25
359.346	12.22
359.71	12.19
360.075	12.17
360.439	12.14
360.803	12.11
361.167	12.07
361.531	12.04
361.895	12
362.259	11.95
362.623	11.9
362.987	11.86
363.351	11.82
363.714	11.77
364.078	11.72
364.442	11.67
364.806	11.62
365.169	11.58
365.533	11.53
365.896	11.47
366.26	11.42
366.623	11.36
366.987	11.29
367.35	11.23
367.714	11.18
368.077	11.11
368.44	11.04
368.803	10.97
369.167	10.89
369.53	10.8
369.893	10.71
370.256	10.63
370.619	10.55
370.982	10.47
371.345	10.38
371.708	10.29
372.071	10.21
372.434	10.13
372.797	10.04
373.159	9.96
373.522	9.89
373.885	9.81
374.247	9.73
374.61	9.65
374.973	9.57
375.335	9.48
375.698	9.4
376.06	9.32
376.423	9.23
376.785	9.15
377.147	9.08
377.51	9
377.872	8.92
378.234	8.83
378.596	8.75
378.958	8.68
379.321	8.6
379.683	8.53
380.045	8.45
380.407	8.38
380.769	8.31
381.13	8.24
381.492	8.17
381.854	8.11
382.216	8.04
382.578	7.97
382.939	7.91
383.301	7.84
383.663	7.78
384.024	7.72
384.386	7.66
384.747	7.6
385.109	7.54
385.47	7.49
385.832	7.42
386.193	7.37
386.554	7.31
386.916	7.25
387.277	7.19
387.638	7.13
387.999	7.09
388.36	7.03
388.721	6.98
389.082	6.93
389.443	6.88
389.804	6.83
390.165	6.78
390.526	6.74
390.887	6.69
391.248	6.64
391.609	6.6
391.969	6.56
392.33	6.51
392.691	6.47
393.051	6.42
393.412	6.37
393.772	6.33
394.133	6.28
394.493	6.23
394.854	6.19
395.214	6.14
395.574	6.1
395.935	6.05
396.295	6.01
396.655	5.97
397.015	5.92
397.376	5.88
397.736	5.84
398.096	5.8
398.456	5.75
398.816	5.72
399.176	5.68
399.535	5.64
399.895	5.6
400.255	5.56
400.615	5.52
400.975	5.48
401.334	5.44
401.694	5.41
402.054	5.38
402.413	5.35
402.773	5.32
403.132	5.3
403.492	5.27
403.851	5.25
404.211	5.22
404.57	5.2
404.929	5.18
405.288	5.16
405.648	5.14
406.007	5.12
406.366	5.1
406.725	5.08
407.084	5.07
407.443	5.05
407.802	5.03
408.161	5.01
408.52	5
408.879	4.98
409.238	4.97
409.596	4.95
409.955	4.94
410.314	4.93
410.673	4.91
411.031	4.9
411.39	4.89
411.748	4.88
412.107	4.86
412.465	4.86
412.824	4.87
413.182	4.87
413.54	4.88
413.899	4.89
414.257	4.91
414.615	4.94
414.974	4.96
415.332	4.98
415.69	5.01
416.048	5.03
416.406	5.06
416.764	5.07
417.122	5.09
417.48	5.11
417.838	5.13
418.195	5.14
418.553	5.15
418.911	5.16
419.269	5.15
419.626	5.13
419.984	5.11
420.342	5.09
420.699	5.06
421.057	5.02
421.414	5
421.772	4.97
422.129	4.95
422.486	4.94
422.844	4.92
423.201	4.91
423.558	4.9
423.915	4.89
424.273	4.88
424.63	4.87
424.987	4.86
425.344	4.85
425.701	4.84
426.058	4.83
426.415	4.82
426.772	4.81
427.128	4.8
427.485	4.78
427.842	4.76
428.199	4.73
428.555	4.71
428.912	4.68
429.269	4.64
429.625	4.61
429.982	4.58
430.338	4.54
430.695	4.51
431.051	4.47
431.407	4.44
431.764	4.42
432.12	4.39
432.476	4.38
432.832	4.36
433.189	4.36
433.545	4.36
433.901	4.38
434.257	4.39
434.613	4.42
434.969	4.44
435.325	4.47
435.681	4.52
436.036	4.54
436.392	4.56
436.748	4.57
437.104	4.58
437.459	4.6
437.815	4.62
438.171	4.64
438.526	4.66
438.882	4.69
439.237	4.73
439.593	4.76
439.948	4.79
440.304	4.83
440.659	4.86
441.014	4.88
441.369	4.9
441.725	4.92
442.08	4.93
442.435	4.94
442.79	4.95
443.145	4.95
443.5	4.94
443.855	4.94
444.21	4.94
444.565	4.93
444.92	4.91
445.275	4.9
445.629	4.89
445.984	4.87
446.339	4.85
446.693	4.84
447.048	4.81
447.403	4.79
447.757	4.76
448.112	4.74
448.466	4.7
448.82	4.68
449.175	4.65
449.529	4.62
449.883	4.59
450.238	4.56
450.592	4.56
450.946	4.54
451.3	4.54
451.654	4.54
452.008	4.53
452.362	4.53
452.716	4.53
453.07	4.53
453.424	4.52
453.778	4.51
454.132	4.5
454.486	4.48
454.839	4.46
455.193	4.43
455.547	4.42
455.9	4.39
456.254	4.37
456.607	4.34
456.961	4.31
457.314	4.29
457.668	4.28
458.021	4.27
458.375	4.27
458.728	4.27
459.081	4.28
459.434	4.29
459.787	4.31
460.141	4.32
460.494	4.33
460.847	4.35
461.2	4.36
461.553	4.37
461.906	4.38
462.259	4.39
462.611	4.4
462.964	4.41
463.317	4.43
463.67	4.44
464.022	4.45
464.375	4.46
464.728	4.47
465.08	4.48
465.433	4.49
465.785	4.5
466.138	4.49
466.49	4.49
466.843	4.48
467.195	4.47
467.547	4.45
467.899	4.44
468.252	4.42
468.604	4.4
468.956	4.39
469.308	4.38
469.66	4.39
470.012	4.39
470.364	4.4
470.716	4.42
471.068	4.44
471.42	4.47
471.772	4.49
472.123	4.51
472.475	4.52
472.827	4.54
473.178	4.55
473.53	4.56
473.882	4.58
474.233	4.6
474.585	4.64
474.936	4.71
475.288	4.8
475.639	4.92
475.99	5.06
476.342	5.21
476.693	5.37
477.044	5.54
477.395	5.72
477.746	5.89
478.097	6.07
478.448	6.25
478.8	6.43
479.15	6.59
479.501	6.73
479.852	6.87
480.203	7
480.554	7.13
480.905	7.24
481.255	7.35
481.606	7.46
481.957	7.56
482.307	7.66
482.658	7.74
483.009	7.83
483.359	7.91
483.709	8
484.06	8.07
484.41	8.15
484.761	8.22
485.111	8.29
485.461	8.36
485.811	8.43
486.162	8.49
486.512	8.54
486.862	8.58
487.212	8.61
487.562	8.63
487.912	8.64
488.262	8.65
488.612	8.65
488.961	8.64
489.311	8.6
489.661	8.53
490.011	8.45
490.36	8.34
490.71	8.23
491.06	8.1
491.409	7.97
491.759	7.83
492.108	7.68
492.458	7.53
492.807	7.37
493.157	7.22
493.506	7.07
493.855	6.94
494.204	6.82
494.554	6.7
494.903	6.59
495.252	6.5
495.601	6.41
495.95	6.33
496.299	6.25
496.648	6.19
496.997	6.13
497.346	6.09
497.695	6.04
498.043	6
498.392	5.97
498.741	5.95
499.09	5.94
499.438	5.93
499.787	5.93
500.135	5.94
500.484	5.96
500.832	6
501.181	6.05
501.529	6.12
501.878	6.22
502.226	6.32
502.574	6.44
502.923	6.56
503.271	6.69
503.619	6.83
503.967	6.99
504.315	7.14
504.663	7.29
505.011	7.46
505.359	7.62
505.707	7.8
506.055	7.98
506.403	8.17
506.751	8.37
507.098	8.58
507.446	8.8
507.794	9.03
508.141	9.27
508.489	9.52
508.837	9.79
509.184	10.06
509.531	10.34
509.879	10.64
510.226	10.97
510.574	11.3
510.921	11.65
511.268	12.01
511.616	12.39
511.963	12.78
512.31	13.18
512.657	13.58
513.004	13.98
513.351	14.36
513.698	14.74
514.045	15.1
514.392	15.44
514.739	15.78
515.086	16.12
515.432	16.45
515.779	16.79
516.126	17.14
516.473	17.52
516.819	17.92
517.166	18.35
517.512	18.8
517.859	19.29
518.205	19.8
518.552	20.34
518.898	20.93
519.245	21.58
519.591	22.36
519.937	23.24
520.283	24.24
520.629	25.32
520.976	26.44
521.322	27.6
521.668	28.79
522.014	29.98
522.36	31.16
522.706	32.32
523.052	33.46
523.398	34.54
523.743	35.54
524.089	36.46
524.435	37.33
524.781	38.18
525.126	39.02
525.472	39.84
525.817	40.64
526.163	41.43
526.509	42.19
526.854	42.94
527.199	43.68
527.545	44.43
527.89	45.2
528.235	45.95
528.581	46.66
528.926	47.33
529.271	47.96
529.616	48.57
529.961	49.15
530.306	49.68
530.651	50.16
530.996	50.61
531.341	51.02
531.686	51.41
532.031	51.75
532.376	52.13
532.721	52.55
533.065	52.99
533.41	53.44
533.755	53.83
534.099	54.15
534.444	54.41
534.788	54.61
535.133	54.79
535.477	54.92
535.822	55
536.166	55.02
536.51	54.96
536.855	54.81
537.199	54.6
537.543	54.4
537.887	54.26
538.231	54.16
538.576	54.06
538.92	53.93
539.264	53.79
539.608	53.61
539.951	53.42
540.295	53.19
540.639	52.95
540.983	52.69
541.327	52.39
541.671	52.08
542.014	51.81
542.358	51.57
542.701	51.46
543.045	51.43
543.389	51.45
543.732	51.49
544.075	51.56
544.419	51.64
544.762	51.75
545.105	51.87
545.449	52.01
545.792	52.16
546.135	52.31
546.478	52.39
546.821	52.39
547.165	52.31
547.508	52.14
547.851	51.9
548.194	51.6
548.536	51.22
548.879	50.8
549.222	50.35
549.565	49.89
549.908	49.43
550.25	49.01
550.593	48.67
550.936	48.44
551.278	48.27
551.621	48.17
551.963	48.09
552.306	48.03
552.648	48.03
552.991	48.07
553.333	48.13
553.675	48.24
554.017	48.39
554.36	48.58
554.702	48.8
555.044	49.08
555.386	49.42
555.728	49.8
556.07	50.1
556.412	50.43
556.754	50.62
557.096	50.78
557.438	50.93
557.78	51.09
558.121	51.25
558.463	51.41
558.805	51.56
559.147	51.71
559.488	51.86
559.83	52.01
560.171	52.15
560.513	52.29
560.854	52.42
561.196	52.57
561.537	52.71
561.878	52.84
562.22	52.97
562.561	53.09
562.902	53.23
563.243	53.35
563.584	53.48
563.925	53.6
564.266	53.73
564.607	53.85
564.948	53.97
565.289	54.1
565.63	54.22
565.971	54.34
566.312	54.46
566.653	54.58
566.993	54.69
567.334	54.8
567.675	54.91
568.015	55
568.356	55.11
568.696	55.21
569.037	55.3
569.377	55.4
569.718	55.49
570.058	55.58
570.398	55.66
570.739	55.75
571.079	55.82
571.419	55.89
571.759	55.96
572.099	56.02
572.439	56.08
572.779	56.14
573.119	56.2
573.459	56.25
573.799	56.3
574.139	56.37
574.479	56.43
574.819	56.49
575.158	56.55
575.498	56.61
575.838	56.66
576.177	56.72
576.517	56.78
576.856	56.81
577.196	56.87
577.535	56.92
577.875	56.98
578.214	57.02
578.553	57.07
578.893	57.12
579.232	57.16
579.571	57.2
579.91	57.24
580.25	57.28
580.589	57.32
580.928	57.36
581.267	57.4
581.606	57.45
581.945	57.5
582.283	57.54
582.622	57.6
582.961	57.65
583.3	57.7
583.639	57.74
583.977	57.79
584.316	57.85
584.654	57.9
584.993	57.96
585.332	58.01
585.67	58.07
586.008	58.14
586.347	58.2
586.685	58.28
587.024	58.33
587.362	58.4
587.7	58.46
588.038	58.53
588.376	58.6
588.715	58.66
589.053	58.72
589.391	58.79
589.729	58.86
590.067	58.92
590.404	59
590.742	59.07
591.08	59.13
591.418	59.19
591.756	59.24
592.093	59.29
592.431	59.35
592.769	59.39
593.106	59.43
593.444	59.49
593.781	59.53
594.119	59.6
594.456	59.65
594.793	59.7
595.131	59.74
595.468	59.79
595.805	59.83
596.143	59.88
596.48	59.92
596.817	59.98
597.154	60.04
597.491	60.11
597.828	60.16
598.165	60.2
598.502	60.24
598.839	60.3
599.176	60.34
599.512	60.39
599.849	60.42
600.186	60.45
600.523	60.49
600.859	60.53
601.196	60.57
601.532	60.6
601.869	60.62
602.205	60.65
602.542	60.69
602.878	60.73
603.215	60.75
603.551	60.79
603.887	60.82
604.223	60.85
604.56	60.87
604.896	60.9
605.232	60.93
605.568	60.95
605.904	60.98
606.24	61
606.576	61.03
606.912	61.06
607.248	61.09
607.583	61.11
607.919	61.11
608.255	61.14
608.591	61.15
608.926	61.19
609.262	61.2
609.597	61.23
609.933	61.24
610.268	61.26
610.604	61.27
610.939	61.28
611.275	61.28
611.61	61.3
611.945	61.31
612.281	61.32
612.616	61.33
612.951	61.34
613.286	61.35
613.621	61.37
613.956	61.38
614.291	61.41
614.626	61.42
614.961	61.42
615.296	61.45
615.631	61.48
615.966	61.49
616.3	61.51
616.635	61.52
616.97	61.55
617.304	61.56
617.639	61.58
617.973	61.59
618.308	61.62
618.642	61.63
618.977	61.66
619.311	61.69
619.646	61.71
619.98	61.73
620.314	61.75
620.648	61.78
620.983	61.8
621.317	61.84
621.651	61.87
621.985	61.88
622.319	61.91
622.653	61.93
622.987	61.96
623.321	61.97
623.655	62
623.988	62.02
624.322	62.03
624.656	62.04
624.99	62.07
625.323	62.09
625.657	62.12
625.99	62.14
626.324	62.17
626.657	62.19
626.991	62.22
627.324	62.25
627.658	62.26
627.991	62.27
628.324	62.28
628.657	62.31
628.991	62.32
629.324	62.33
629.657	62.34
629.99	62.36
630.323	62.38
630.656	62.38
630.989	62.41
631.322	62.42
631.655	62.44
631.987	62.44
632.32	62.47
632.653	62.48
632.986	62.49
633.318	62.5
633.651	62.52
633.984	62.54
634.316	62.55
634.649	62.56
634.981	62.56
635.313	62.58
635.646	62.6
635.978	62.61
636.31	62.62
636.643	62.65
636.975	62.66
637.307	62.69
637.639	62.71
637.971	62.72
638.303	62.74
638.635	62.75
638.967	62.75
639.299	62.75
639.631	62.77
639.963	62.78
640.295	62.8
640.626	62.82
640.958	62.83
641.29	62.85
641.621	62.86
641.953	62.87
642.285	62.9
642.616	62.92
642.948	62.94
643.279	62.97
643.61	62.97
643.942	62.98
644.273	62.97
644.604	62.98
644.936	62.99
645.267	63
645.598	63.03
645.929	63.03
646.26	63.03
646.591	63.04
646.922	63.08
647.253	63.1
647.584	63.11
647.915	63.12
648.245	63.13
648.576	63.14
648.907	63.15
649.238	63.18
649.568	63.19
649.899	63.19
650.229	63.2
650.56	63.24
650.89	63.25
651.221	63.26
651.551	63.28
651.882	63.31
652.212	63.34
652.542	63.36
652.872	63.39
653.203	63.4
653.533	63.42
653.863	63.42
654.193	63.42
654.523	63.43
654.853	63.46
655.183	63.48
655.513	63.5
655.843	63.49
656.172	63.51
656.502	63.53
656.832	63.54
657.162	63.57
657.491	63.58
657.821	63.61
658.15	63.63
658.48	63.65
658.809	63.67
659.139	63.69
659.468	63.71
659.798	63.74
660.127	63.75
660.456	63.76
660.785	63.76
661.115	63.78
661.444	63.8
661.773	63.81
662.102	63.82
662.431	63.83
662.76	63.84
663.089	63.87
663.418	63.87
663.747	63.88
664.076	63.88
664.404	63.9
664.733	63.92
665.062	63.93
665.39	63.94
665.719	63.94
666.048	63.94
666.376	63.95
