Data from UWBM59333_Reflection_00001.txt Node
Date: Sun May 02 13:47:20 EDT 2021
User: vgr7
Spectrometer: USB2G7710
Scans to average: 10
Trigger mode: 4
Integration Time (sec): 1.000000E-1
Electric dark correction enabled: true
Boxcar width: 20
XAxis mode: Wavelengths
Number of Pixels in Spectrum: 2048
>>>>>Begin Spectral Data<<<<<
177.721	69.57
178.105	54.62
178.488	37.21
178.871	46.88
179.254	48.12
179.636	50.63
180.019	36.91
180.402	24.25
180.785	18.91
181.168	23.64
181.55	17.28
181.933	19.19
182.316	8.08
182.698	5.8
183.081	5
183.463	3.61
183.846	0.65
184.228	3.2
184.611	3.31
184.993	4.3
185.376	3.78
185.758	8.73
186.14	9.6
186.522	8.73
186.904	8.09
187.287	9.35
187.669	8.61
188.051	9.13
188.433	11.01
188.815	8.57
189.197	8.58
189.579	7.15
189.961	6.6
190.342	5.15
190.724	4.03
191.106	2.87
191.488	2.39
191.869	0.5
192.251	-2.28
192.633	-2.71
193.014	-1.76
193.396	-5.2
193.777	-3.65
194.159	-1.97
194.54	-3.29
194.922	-5.79
195.303	-7.94
195.684	-8.81
196.065	-8.57
196.447	-7.26
196.828	-9.36
197.209	-8.59
197.59	-11.01
197.971	-10.31
198.352	-7.78
198.733	-7.77
199.114	-6.84
199.495	-6.25
199.876	-7.21
200.257	-6.02
200.638	-6.13
201.018	-4.51
201.399	-5.5
201.78	-7.21
202.16	-6.17
202.541	-5.63
202.922	-5.28
203.302	-4.23
203.683	-4.85
204.063	-5.41
204.444	-4.45
204.824	-3.37
205.204	-5.01
205.585	-4.49
205.965	-3.84
206.345	-5.04
206.725	-4.25
207.106	-3.85
207.486	-3.07
207.866	-2.07
208.246	-3.2
208.626	-4.65
209.006	-2.24
209.386	-2.49
209.766	-4.63
210.145	-4.44
210.525	-2.42
210.905	0.43
211.285	-0.32
211.664	-0.25
212.044	-2.36
212.424	-3.63
212.803	-4.29
213.183	-4.12
213.562	-2.84
213.942	-5.04
214.321	-4.69
214.701	-5.42
215.08	-4.53
215.459	-4.82
215.838	-6.34
216.218	-6.45
216.597	-7.55
216.976	-6.5
217.355	-5.5
217.734	-5.36
218.113	-4.7
218.492	-5.33
218.871	-6.76
219.25	-4.89
219.629	-4.11
220.008	-4.67
220.387	-5.58
220.766	-3.82
221.144	-3.35
221.523	-2.16
221.902	-1.33
222.28	-2.19
222.659	-1.79
223.037	-2.12
223.416	-1.7
223.794	-0.25
224.173	0.15
224.551	-0.06
224.929	0.81
225.308	1.46
225.686	1.82
226.064	1.54
226.442	1.22
226.821	2.14
227.199	2.96
227.577	3.31
227.955	3.8
228.333	4.07
228.711	4.06
229.089	3.65
229.467	3.91
229.845	3.87
230.222	3.91
230.6	3.94
230.978	4.11
231.356	4.47
231.733	4.38
232.111	4.35
232.488	4.13
232.866	3.9
233.243	3.68
233.621	3.54
233.998	3.7
234.376	3.83
234.753	3.4
235.13	3.49
235.508	3.67
235.885	3.72
236.262	3.8
236.639	3.81
237.016	3.74
237.393	3.72
237.77	3.84
238.147	3.86
238.524	3.94
238.901	3.9
239.278	3.86
239.655	3.99
240.032	4
240.409	4.02
240.785	4.04
241.162	4.05
241.539	4.04
241.915	4.1
242.292	4.1
242.668	4.08
243.045	4.1
243.421	4.09
243.798	4.14
244.174	4.15
244.551	4.18
244.927	4.18
245.303	4.19
245.679	4.21
246.056	4.16
246.432	4.18
246.808	4.15
247.184	4.15
247.56	4.17
247.936	4.17
248.312	4.19
248.688	4.17
249.064	4.14
249.44	4.13
249.815	4.14
250.191	4.15
250.567	4.12
250.943	4.11
251.318	4.09
251.694	4.12
252.069	4.1
252.445	4.12
252.82	4.12
253.196	4.11
253.571	4.09
253.947	4.07
254.322	4.08
254.697	4.08
255.073	4.04
255.448	4.02
255.823	3.96
256.198	3.94
256.573	3.92
256.948	3.91
257.323	3.87
257.698	3.82
258.073	3.79
258.448	3.78
258.823	3.77
259.198	3.73
259.573	3.72
259.948	3.71
260.322	3.7
260.697	3.69
261.072	3.66
261.446	3.67
261.821	3.66
262.195	3.67
262.57	3.65
262.944	3.66
263.319	3.67
263.693	3.66
264.067	3.66
264.442	3.67
264.816	3.66
265.19	3.66
265.564	3.68
265.938	3.68
266.313	3.68
266.687	3.68
267.061	3.67
267.435	3.67
267.809	3.64
268.183	3.64
268.556	3.63
268.93	3.64
269.304	3.63
269.678	3.63
270.051	3.61
270.425	3.59
270.799	3.6
271.172	3.63
271.546	3.63
271.919	3.64
272.293	3.66
272.666	3.65
273.04	3.68
273.413	3.71
273.787	3.71
274.16	3.73
274.533	3.74
274.906	3.73
275.279	3.73
275.653	3.74
276.026	3.75
276.399	3.76
276.772	3.78
277.145	3.76
277.518	3.76
277.891	3.79
278.263	3.76
278.636	3.77
279.009	3.75
279.382	3.77
279.755	3.76
280.127	3.78
280.5	3.8
280.872	3.82
281.245	3.83
281.617	3.82
281.99	3.83
282.362	3.82
282.735	3.83
283.107	3.84
283.479	3.83
283.852	3.85
284.224	3.84
284.596	3.83
284.968	3.82
285.34	3.83
285.713	3.83
286.085	3.84
286.457	3.83
286.829	3.83
287.201	3.85
287.572	3.83
287.944	3.84
288.316	3.82
288.688	3.81
289.06	3.82
289.431	3.81
289.803	3.82
290.175	3.84
290.546	3.85
290.918	3.87
291.289	3.87
291.661	3.88
292.032	3.87
292.403	3.88
292.775	3.88
293.146	3.88
293.517	3.87
293.889	3.87
294.26	3.88
294.631	3.91
295.002	3.94
295.373	3.94
295.744	3.91
296.115	3.9
296.486	3.91
296.857	3.92
297.228	3.94
297.599	3.95
297.97	3.95
298.34	3.95
298.711	3.96
299.082	3.96
299.452	3.96
299.823	3.97
300.194	3.98
300.564	4
300.935	4.01
301.305	4.01
301.676	4.02
302.046	4.03
302.416	4.03
302.787	4.03
303.157	4.02
303.527	4.03
303.897	4.02
304.267	4.03
304.637	4.02
305.008	4.01
305.378	4
305.748	3.99
306.117	3.98
306.487	3.98
306.857	3.98
307.227	3.98
307.597	3.98
307.967	3.98
308.336	3.99
308.706	3.99
309.076	3.98
309.445	3.98
309.815	3.95
310.184	3.93
310.554	3.91
310.923	3.93
311.293	3.93
311.662	3.92
312.031	3.92
312.401	3.91
312.77	3.91
313.139	3.91
313.508	3.91
313.877	3.91
314.246	3.9
314.616	3.91
314.985	3.9
315.353	3.9
315.722	3.89
316.091	3.89
316.46	3.88
316.829	3.89
317.198	3.87
317.567	3.87
317.935	3.88
318.304	3.88
318.672	3.88
319.041	3.89
319.41	3.87
319.778	3.9
320.147	3.88
320.515	3.87
320.883	3.86
321.252	3.86
321.62	3.86
321.988	3.86
322.357	3.85
322.725	3.86
323.093	3.84
323.461	3.84
323.829	3.85
324.197	3.84
324.565	3.84
324.933	3.85
325.301	3.84
325.669	3.85
326.037	3.83
326.405	3.82
326.772	3.82
327.14	3.8
327.508	3.79
327.875	3.79
328.243	3.78
328.61	3.78
328.978	3.77
329.346	3.77
329.713	3.78
330.08	3.78
330.448	3.77
330.815	3.75
331.182	3.73
331.55	3.73
331.917	3.72
332.284	3.7
332.651	3.68
333.018	3.68
333.385	3.68
333.752	3.68
334.119	3.66
334.486	3.66
334.853	3.65
335.22	3.66
335.587	3.66
335.954	3.67
336.32	3.66
336.687	3.65
337.054	3.63
337.42	3.63
337.787	3.63
338.153	3.65
338.52	3.64
338.886	3.63
339.253	3.64
339.619	3.63
339.986	3.62
340.352	3.63
340.718	3.63
341.084	3.63
341.451	3.64
341.817	3.65
342.183	3.66
342.549	3.65
342.915	3.66
343.281	3.66
343.647	3.65
344.013	3.65
344.379	3.65
344.745	3.63
345.11	3.64
345.476	3.65
345.842	3.67
346.208	3.67
346.573	3.67
346.939	3.66
347.304	3.68
347.67	3.67
348.035	3.67
348.401	3.67
348.766	3.67
349.132	3.67
349.497	3.68
349.862	3.68
350.228	3.69
350.593	3.69
350.958	3.69
351.323	3.69
351.688	3.7
352.053	3.7
352.418	3.71
352.783	3.71
353.148	3.69
353.513	3.69
353.878	3.69
354.243	3.69
354.608	3.69
354.972	3.7
355.337	3.7
355.702	3.71
356.066	3.71
356.431	3.7
356.795	3.7
357.16	3.69
357.524	3.69
357.889	3.69
358.253	3.69
358.618	3.69
358.982	3.7
359.346	3.7
359.71	3.71
360.075	3.7
360.439	3.7
360.803	3.7
361.167	3.7
361.531	3.7
361.895	3.7
362.259	3.69
362.623	3.7
362.987	3.7
363.351	3.7
363.714	3.7
364.078	3.7
364.442	3.7
364.806	3.7
365.169	3.69
365.533	3.69
365.896	3.7
366.26	3.71
366.623	3.71
366.987	3.71
367.35	3.7
367.714	3.7
368.077	3.7
368.44	3.7
368.803	3.71
369.167	3.71
369.53	3.71
369.893	3.7
370.256	3.7
370.619	3.7
370.982	3.7
371.345	3.69
371.708	3.7
372.071	3.71
372.434	3.71
372.797	3.72
373.159	3.71
373.522	3.72
373.885	3.72
374.247	3.72
374.61	3.72
374.973	3.71
375.335	3.7
375.698	3.7
376.06	3.69
376.423	3.69
376.785	3.7
377.147	3.7
377.51	3.7
377.872	3.7
378.234	3.7
378.596	3.69
378.958	3.69
379.321	3.69
379.683	3.69
380.045	3.68
380.407	3.68
380.769	3.68
381.13	3.66
381.492	3.67
381.854	3.67
382.216	3.67
382.578	3.67
382.939	3.67
383.301	3.67
383.663	3.67
384.024	3.67
384.386	3.66
384.747	3.66
385.109	3.66
385.47	3.66
385.832	3.66
386.193	3.66
386.554	3.66
386.916	3.66
387.277	3.65
387.638	3.64
387.999	3.65
388.36	3.64
388.721	3.64
389.082	3.64
389.443	3.64
389.804	3.63
390.165	3.64
390.526	3.64
390.887	3.64
391.248	3.64
391.609	3.64
391.969	3.64
392.33	3.64
392.691	3.64
393.051	3.65
393.412	3.65
393.772	3.65
394.133	3.65
394.493	3.65
394.854	3.65
395.214	3.64
395.574	3.64
395.935	3.64
396.295	3.64
396.655	3.64
397.015	3.64
397.376	3.64
397.736	3.64
398.096	3.64
398.456	3.64
398.816	3.65
399.176	3.65
399.535	3.65
399.895	3.65
400.255	3.66
400.615	3.66
400.975	3.66
401.334	3.66
401.694	3.66
402.054	3.67
402.413	3.67
402.773	3.67
403.132	3.67
403.492	3.67
403.851	3.67
404.211	3.67
404.57	3.68
404.929	3.68
405.288	3.68
405.648	3.68
406.007	3.68
406.366	3.68
406.725	3.68
407.084	3.68
407.443	3.68
407.802	3.68
408.161	3.69
408.52	3.69
408.879	3.69
409.238	3.69
409.596	3.7
409.955	3.7
410.314	3.7
410.673	3.71
411.031	3.71
411.39	3.71
411.748	3.72
412.107	3.72
412.465	3.74
412.824	3.76
413.182	3.78
413.54	3.8
413.899	3.83
414.257	3.87
414.615	3.91
414.974	3.94
415.332	3.97
415.69	4.01
416.048	4.04
416.406	4.08
416.764	4.1
417.122	4.13
417.48	4.17
417.838	4.19
418.195	4.22
418.553	4.24
418.911	4.26
419.269	4.27
419.626	4.27
419.984	4.26
420.342	4.25
420.699	4.24
421.057	4.22
421.414	4.21
421.772	4.2
422.129	4.19
422.486	4.19
422.844	4.18
423.201	4.18
423.558	4.18
423.915	4.18
424.273	4.18
424.63	4.18
424.987	4.18
425.344	4.18
425.701	4.18
426.058	4.18
426.415	4.19
426.772	4.19
427.128	4.18
427.485	4.17
427.842	4.16
428.199	4.15
428.555	4.13
428.912	4.11
429.269	4.08
429.625	4.06
429.982	4.03
430.338	4
430.695	3.98
431.051	3.95
431.407	3.93
431.764	3.92
432.12	3.9
432.476	3.89
432.832	3.88
433.189	3.88
433.545	3.88
433.901	3.89
434.257	3.91
434.613	3.94
434.969	3.96
435.325	3.99
435.681	4.03
436.036	4.05
436.392	4.07
436.748	4.09
437.104	4.09
437.459	4.12
437.815	4.13
438.171	4.15
438.526	4.18
438.882	4.21
439.237	4.25
439.593	4.28
439.948	4.31
440.304	4.35
440.659	4.37
441.014	4.39
441.369	4.42
441.725	4.43
442.08	4.45
442.435	4.47
442.79	4.48
443.145	4.48
443.5	4.48
443.855	4.48
444.21	4.48
444.565	4.48
444.92	4.48
445.275	4.47
445.629	4.46
445.984	4.45
446.339	4.44
446.693	4.43
447.048	4.42
447.403	4.4
447.757	4.38
448.112	4.36
448.466	4.34
448.82	4.32
449.175	4.3
449.529	4.28
449.883	4.26
450.238	4.23
450.592	4.23
450.946	4.22
451.3	4.22
451.654	4.23
452.008	4.23
452.362	4.24
452.716	4.24
453.07	4.24
453.424	4.24
453.778	4.23
454.132	4.22
454.486	4.21
454.839	4.19
455.193	4.18
455.547	4.16
455.9	4.14
456.254	4.12
456.607	4.09
456.961	4.07
457.314	4.05
457.668	4.04
458.021	4.03
458.375	4.03
458.728	4.03
459.081	4.03
459.434	4.03
459.787	4.04
460.141	4.05
460.494	4.06
460.847	4.07
461.2	4.07
461.553	4.08
461.906	4.08
462.259	4.08
462.611	4.09
462.964	4.09
463.317	4.1
463.67	4.1
464.022	4.11
464.375	4.12
464.728	4.12
465.08	4.12
465.433	4.12
465.785	4.12
466.138	4.11
466.49	4.09
466.843	4.07
467.195	4.05
467.547	4.03
467.899	4.01
468.252	3.98
468.604	3.95
468.956	3.93
469.308	3.92
469.66	3.91
470.012	3.91
470.364	3.91
470.716	3.91
471.068	3.93
471.42	3.94
471.772	3.96
472.123	3.98
472.475	3.98
472.827	4
473.178	4
473.53	4.01
473.882	4.03
474.233	4.05
474.585	4.09
474.936	4.15
475.288	4.23
475.639	4.34
475.99	4.47
476.342	4.62
476.693	4.77
477.044	4.93
477.395	5.1
477.746	5.27
478.097	5.43
478.448	5.6
478.8	5.77
479.15	5.93
479.501	6.08
479.852	6.21
480.203	6.34
480.554	6.46
480.905	6.58
481.255	6.69
481.606	6.79
481.957	6.89
482.307	6.99
482.658	7.08
483.009	7.17
483.359	7.25
483.709	7.34
484.06	7.41
484.41	7.49
484.761	7.57
485.111	7.64
485.461	7.71
485.811	7.77
486.162	7.83
486.512	7.88
486.862	7.92
487.212	7.94
487.562	7.96
487.912	7.97
488.262	7.98
488.612	7.97
488.961	7.95
489.311	7.91
489.661	7.85
490.011	7.76
490.36	7.66
490.71	7.54
491.06	7.41
491.409	7.27
491.759	7.13
492.108	6.98
492.458	6.82
492.807	6.66
493.157	6.5
493.506	6.35
493.855	6.2
494.204	6.06
494.554	5.92
494.903	5.8
495.252	5.68
495.601	5.57
495.95	5.45
496.299	5.35
496.648	5.25
496.997	5.16
497.346	5.07
497.695	4.98
498.043	4.89
498.392	4.81
498.741	4.73
499.09	4.66
499.438	4.58
499.787	4.51
500.135	4.45
500.484	4.39
500.832	4.34
501.181	4.31
501.529	4.29
501.878	4.27
502.226	4.26
502.574	4.25
502.923	4.25
503.271	4.25
503.619	4.25
503.967	4.25
504.315	4.25
504.663	4.24
505.011	4.24
505.359	4.24
505.707	4.24
506.055	4.24
506.403	4.24
506.751	4.24
507.098	4.24
507.446	4.25
507.794	4.25
508.141	4.26
508.489	4.27
508.837	4.29
509.184	4.3
509.531	4.31
509.879	4.32
510.226	4.34
510.574	4.36
510.921	4.38
511.268	4.39
511.616	4.42
511.963	4.44
512.31	4.46
512.657	4.49
513.004	4.51
513.351	4.52
513.698	4.54
514.045	4.55
514.392	4.56
514.739	4.56
515.086	4.56
515.432	4.55
515.779	4.55
516.126	4.55
516.473	4.55
516.819	4.55
517.166	4.56
517.512	4.56
517.859	4.58
518.205	4.6
518.552	4.62
518.898	4.65
519.245	4.69
519.591	4.75
519.937	4.82
520.283	4.91
520.629	5.01
520.976	5.12
521.322	5.24
521.668	5.36
522.014	5.49
522.36	5.61
522.706	5.74
523.052	5.85
523.398	5.96
523.743	6.06
524.089	6.14
524.435	6.21
524.781	6.28
525.126	6.34
525.472	6.4
525.817	6.45
526.163	6.5
526.509	6.55
526.854	6.59
527.199	6.64
527.545	6.68
527.89	6.73
528.235	6.78
528.581	6.83
528.926	6.87
529.271	6.91
529.616	6.95
529.961	6.98
530.306	7.01
530.651	7.04
530.996	7.06
531.341	7.07
531.686	7.08
532.031	7.08
532.376	7.08
532.721	7.08
533.065	7.09
533.41	7.1
533.755	7.1
534.099	7.08
534.444	7.06
534.788	7.03
535.133	6.99
535.477	6.94
535.822	6.89
536.166	6.84
536.51	6.77
536.855	6.69
537.199	6.61
537.543	6.53
537.887	6.47
538.231	6.4
538.576	6.35
538.92	6.29
539.264	6.24
539.608	6.18
539.951	6.11
540.295	6.05
540.639	5.99
540.983	5.92
541.327	5.86
541.671	5.79
542.014	5.73
542.358	5.67
542.701	5.63
543.045	5.59
543.389	5.57
543.732	5.54
544.075	5.53
544.419	5.51
544.762	5.49
545.105	5.48
545.449	5.47
545.792	5.46
546.135	5.45
546.478	5.43
546.821	5.41
547.165	5.38
547.508	5.34
547.851	5.3
548.194	5.24
548.536	5.18
548.879	5.12
549.222	5.04
549.565	4.97
549.908	4.9
550.25	4.83
550.593	4.77
550.936	4.72
551.278	4.68
551.621	4.65
551.963	4.62
552.306	4.59
552.648	4.57
552.991	4.55
553.333	4.54
553.675	4.53
554.017	4.53
554.36	4.53
554.702	4.53
555.044	4.54
555.386	4.55
555.728	4.57
556.07	4.58
556.412	4.6
556.754	4.61
557.096	4.61
557.438	4.61
557.78	4.61
558.121	4.62
558.463	4.62
558.805	4.62
559.147	4.62
559.488	4.63
559.83	4.63
560.171	4.63
560.513	4.63
560.854	4.63
561.196	4.63
561.537	4.64
561.878	4.64
562.22	4.64
562.561	4.64
562.902	4.64
563.243	4.64
563.584	4.64
563.925	4.64
564.266	4.65
564.607	4.65
564.948	4.66
565.289	4.66
565.63	4.66
565.971	4.67
566.312	4.67
566.653	4.68
566.993	4.68
567.334	4.68
567.675	4.69
568.015	4.69
568.356	4.69
568.696	4.7
569.037	4.7
569.377	4.7
569.718	4.7
570.058	4.7
570.398	4.7
570.739	4.7
571.079	4.71
571.419	4.71
571.759	4.71
572.099	4.71
572.439	4.71
572.779	4.71
573.119	4.71
573.459	4.71
573.799	4.71
574.139	4.71
574.479	4.72
574.819	4.72
575.158	4.72
575.498	4.72
575.838	4.72
576.177	4.72
576.517	4.72
576.856	4.72
577.196	4.72
577.535	4.72
577.875	4.72
578.214	4.72
578.553	4.72
578.893	4.72
579.232	4.72
579.571	4.72
579.91	4.72
580.25	4.72
580.589	4.72
580.928	4.72
581.267	4.72
581.606	4.71
581.945	4.71
582.283	4.71
582.622	4.71
582.961	4.71
583.3	4.71
583.639	4.71
583.977	4.72
584.316	4.72
584.654	4.72
584.993	4.72
585.332	4.72
585.67	4.72
586.008	4.72
586.347	4.73
586.685	4.73
587.024	4.73
587.362	4.73
587.7	4.74
588.038	4.74
588.376	4.74
588.715	4.74
589.053	4.74
589.391	4.75
589.729	4.75
590.067	4.76
590.404	4.76
590.742	4.76
591.08	4.77
591.418	4.77
591.756	4.78
592.093	4.78
592.431	4.78
592.769	4.79
593.106	4.79
593.444	4.79
593.781	4.79
594.119	4.79
594.456	4.79
594.793	4.8
595.131	4.8
595.468	4.8
595.805	4.81
596.143	4.81
596.48	4.81
596.817	4.81
597.154	4.82
597.491	4.82
597.828	4.83
598.165	4.83
598.502	4.83
598.839	4.84
599.176	4.84
599.512	4.85
599.849	4.85
600.186	4.85
600.523	4.85
600.859	4.86
601.196	4.86
601.532	4.86
601.869	4.86
602.205	4.86
602.542	4.87
602.878	4.87
603.215	4.87
603.551	4.87
603.887	4.88
604.223	4.88
604.56	4.88
604.896	4.88
605.232	4.89
605.568	4.89
605.904	4.89
606.24	4.89
606.576	4.89
606.912	4.89
607.248	4.89
607.583	4.89
607.919	4.89
608.255	4.9
608.591	4.9
608.926	4.9
609.262	4.9
609.597	4.9
609.933	4.9
610.268	4.9
610.604	4.9
610.939	4.9
611.275	4.9
611.61	4.9
611.945	4.9
612.281	4.9
612.616	4.9
612.951	4.89
613.286	4.89
613.621	4.89
613.956	4.89
614.291	4.9
614.626	4.9
614.961	4.9
615.296	4.9
615.631	4.91
615.966	4.91
616.3	4.91
616.635	4.91
616.97	4.91
617.304	4.91
617.639	4.91
617.973	4.9
618.308	4.9
618.642	4.91
618.977	4.91
619.311	4.91
619.646	4.92
619.98	4.92
620.314	4.92
620.648	4.93
620.983	4.94
621.317	4.94
621.651	4.95
621.985	4.95
622.319	4.96
622.653	4.96
622.987	4.96
623.321	4.97
623.655	4.97
623.988	4.98
624.322	4.98
624.656	4.99
624.99	4.99
625.323	4.99
625.657	4.99
625.99	4.99
626.324	5
626.657	5
626.991	5
627.324	5
627.658	5
627.991	5
628.324	4.99
628.657	5
628.991	5
629.324	5.01
629.657	5.01
629.99	5.01
630.323	5.02
630.656	5.02
630.989	5.02
631.322	5.02
631.655	5.04
631.987	5.04
632.32	5.04
632.653	5.04
632.986	5.05
633.318	5.05
633.651	5.06
633.984	5.06
634.316	5.07
634.649	5.07
634.981	5.07
635.313	5.07
635.646	5.07
635.978	5.08
636.31	5.08
636.643	5.09
636.975	5.09
637.307	5.09
637.639	5.09
637.971	5.09
638.303	5.1
638.635	5.1
638.967	5.1
639.299	5.1
639.631	5.11
639.963	5.11
640.295	5.12
640.626	5.13
640.958	5.13
641.29	5.14
641.621	5.15
641.953	5.16
642.285	5.16
642.616	5.17
642.948	5.16
643.279	5.17
643.61	5.18
643.942	5.18
644.273	5.19
644.604	5.19
644.936	5.19
645.267	5.19
645.598	5.19
645.929	5.2
646.26	5.19
646.591	5.19
646.922	5.19
647.253	5.2
647.584	5.2
647.915	5.2
648.245	5.2
648.576	5.2
648.907	5.21
649.238	5.21
649.568	5.21
649.899	5.21
650.229	5.22
650.56	5.22
650.89	5.23
651.221	5.23
651.551	5.23
651.882	5.24
652.212	5.24
652.542	5.25
652.872	5.25
653.203	5.25
653.533	5.26
653.863	5.26
654.193	5.26
654.523	5.27
654.853	5.27
655.183	5.28
655.513	5.29
655.843	5.29
656.172	5.28
656.502	5.29
656.832	5.29
657.162	5.29
657.491	5.29
657.821	5.29
658.15	5.29
658.48	5.31
658.809	5.32
659.139	5.32
659.468	5.33
659.798	5.33
660.127	5.33
660.456	5.34
660.785	5.34
661.115	5.35
661.444	5.35
661.773	5.36
662.102	5.35
662.431	5.35
662.76	5.36
663.089	5.36
663.418	5.36
663.747	5.37
664.076	5.37
664.404	5.38
664.733	5.39
665.062	5.4
665.39	5.4
665.719	5.4
666.048	5.41
666.376	5.42
666.705	5.42
667.033	5.42
667.362	5.43
667.69	5.43
668.018	5.43
668.347	5.44
668.675	5.44
669.003	5.45
669.331	5.46
669.659	5.46
669.987	5.47
670.315	5.47
670.643	5.48
670.971	5.48
671.299	5.49
671.627	5.49
671.955	5.49
672.283	5.49
672.61	5.49
672.938	5.49
673.266	5.49
673.593	5.49
673.921	5.49
674.249	5.5
674.576	5.5
674.904	5.51
675.231	5.51
675.558	5.52
675.886	5.53
676.213	5.54
676.54	5.54
676.867	5.54
677.195	5.54
677.522	5.55
677.849	5.55
678.176	5.55
678.503	5.55
678.83	5.56
679.157	5.56
679.484	5.57
679.81	5.57
680.137	5.58
680.464	5.58
680.791	5.59
681.117	5.6
681.444	5.6
681.771	5.6
682.097	5.6
