Data from UWBM86267_Reflection_00001.txt Node
Date: Sun May 02 14:07:02 EDT 2021
User: vgr7
Spectrometer: USB2G7710
Scans to average: 10
Trigger mode: 4
Integration Time (sec): 1.000000E-1
Electric dark correction enabled: true
Boxcar width: 20
XAxis mode: Wavelengths
Number of Pixels in Spectrum: 2048
>>>>>Begin Spectral Data<<<<<
177.721	166.29
178.105	222
178.488	247.63
178.871	331.34
179.254	217.47
179.636	193.35
180.019	146.62
180.402	131.77
180.785	82.02
181.168	72.7
181.55	60.61
181.933	62.83
182.316	56.35
182.698	54.6
183.081	52.4
183.463	44.93
183.846	35.58
184.228	34
184.611	28.93
184.993	30.58
185.376	28.08
185.758	29.69
186.14	28.04
186.522	25.75
186.904	29.39
187.287	30.13
187.669	28.05
188.051	27.45
188.433	27.38
188.815	24.03
189.197	21.3
189.579	22.16
189.961	22.63
190.342	22.45
190.724	25.6
191.106	25.34
191.488	24.33
191.869	22.23
192.251	20.24
192.633	17.76
193.014	15.36
193.396	10.64
193.777	11.72
194.159	11.95
194.54	10.18
194.922	6.39
195.303	3.93
195.684	1.73
196.065	0.63
196.447	3.39
196.828	2.64
197.209	0.45
197.59	-2.66
197.971	-3.38
198.352	-4.11
198.733	-2.25
199.114	-1.83
199.495	0.76
199.876	-1.09
200.257	-0.49
200.638	-2.94
201.018	-1.24
201.399	-0.31
201.78	-0.57
202.16	0.51
202.541	-0.57
202.922	-1.72
203.302	0.41
203.683	1.05
204.063	0.17
204.444	-0.84
204.824	0.32
205.204	-2.61
205.585	-2.38
205.965	-1.6
206.345	-4.67
206.725	-6.2
207.106	-5.99
207.486	-5.42
207.866	-4.14
208.246	-3.49
208.626	-3.67
209.006	-3.24
209.386	-5.12
209.766	-5.47
210.145	-7.59
210.525	-5.47
210.905	-1.7
211.285	-1.78
211.664	-0.13
212.044	-2.3
212.424	-4.57
212.803	-2.54
213.183	-1.69
213.562	0.45
213.942	0.16
214.321	-2.14
214.701	-3.04
215.08	-4.5
215.459	-3.82
215.838	-3.76
216.218	-3.08
216.597	-4.49
216.976	-4.73
217.355	-3.7
217.734	-3.64
218.113	-4.36
218.492	-5.64
218.871	-7.13
219.25	-7.42
219.629	-7.5
220.008	-6.51
220.387	-7.96
220.766	-5.4
221.144	-6.87
221.523	-6.39
221.902	-5.44
222.28	-5.14
222.659	-4.22
223.037	-3.92
223.416	-3.29
223.794	-2.84
224.173	-2.55
224.551	-3.2
224.929	-1.96
225.308	-2
225.686	-1.22
226.064	-0.93
226.442	-1.21
226.821	-0.5
227.199	-0.41
227.577	0.14
227.955	1.34
228.333	1.41
228.711	0.57
229.089	-0.13
229.467	-0.33
229.845	-0.4
230.222	-0.25
230.6	0.03
230.978	0.19
231.356	0.53
231.733	0.65
232.111	0.78
232.488	0.64
232.866	0.44
233.243	0.23
233.621	0.62
233.998	0.85
234.376	1.11
234.753	0.87
235.13	1.08
235.508	1.21
235.885	1.39
236.262	1.37
236.639	1.47
237.016	1.53
237.393	1.67
237.77	1.68
238.147	1.64
238.524	1.68
238.901	1.66
239.278	1.78
239.655	1.88
240.032	1.99
240.409	1.99
240.785	2.04
241.162	2.04
241.539	2.06
241.915	2.09
242.292	2.1
242.668	2.13
243.045	2.11
243.421	2.09
243.798	2.09
244.174	2.2
244.551	2.24
244.927	2.27
245.303	2.29
245.679	2.31
246.056	2.27
246.432	2.28
246.808	2.25
247.184	2.24
247.56	2.25
247.936	2.26
248.312	2.26
248.688	2.27
249.064	2.25
249.44	2.27
249.815	2.21
250.191	2.2
250.567	2.21
250.943	2.19
251.318	2.19
251.694	2.22
252.069	2.21
252.445	2.2
252.82	2.18
253.196	2.16
253.571	2.17
253.947	2.18
254.322	2.16
254.697	2.15
255.073	2.13
255.448	2.14
255.823	2.1
256.198	2.09
256.573	2.1
256.948	2.09
257.323	2.06
257.698	2.03
258.073	2.01
258.448	1.99
258.823	1.99
259.198	1.99
259.573	1.97
259.948	1.97
260.322	1.96
260.697	1.94
261.072	1.94
261.446	1.94
261.821	1.94
262.195	1.93
262.57	1.93
262.944	1.92
263.319	1.94
263.693	1.94
264.067	1.96
264.442	1.97
264.816	1.93
265.19	1.94
265.564	1.96
265.938	1.95
266.313	1.96
266.687	1.95
267.061	1.94
267.435	1.94
267.809	1.94
268.183	1.93
268.556	1.94
268.93	1.94
269.304	1.94
269.678	1.94
270.051	1.93
270.425	1.91
270.799	1.91
271.172	1.93
271.546	1.92
271.919	1.92
272.293	1.91
272.666	1.92
273.04	1.95
273.413	1.97
273.787	1.98
274.16	1.98
274.533	1.98
274.906	1.97
275.279	1.99
275.653	2
276.026	2.01
276.399	2.02
276.772	2.02
277.145	2.01
277.518	2.02
277.891	2.02
278.263	2.02
278.636	2.02
279.009	2
279.382	2.01
279.755	2
280.127	2.02
280.5	2.03
280.872	2.04
281.245	2.05
281.617	2.05
281.99	2.05
282.362	2.05
282.735	2.05
283.107	2.05
283.479	2.06
283.852	2.07
284.224	2.07
284.596	2.06
284.968	2.06
285.34	2.07
285.713	2.07
286.085	2.07
286.457	2.08
286.829	2.08
287.201	2.08
287.572	2.08
287.944	2.08
288.316	2.05
288.688	2.05
289.06	2.04
289.431	2.03
289.803	2.04
290.175	2.04
290.546	2.03
290.918	2.04
291.289	2.06
291.661	2.06
292.032	2.05
292.403	2.06
292.775	2.06
293.146	2.06
293.517	2.06
293.889	2.07
294.26	2.09
294.631	2.1
295.002	2.11
295.373	2.1
295.744	2.11
296.115	2.12
296.486	2.13
296.857	2.14
297.228	2.15
297.599	2.15
297.97	2.16
298.34	2.17
298.711	2.18
299.082	2.18
299.452	2.19
299.823	2.19
300.194	2.19
300.564	2.2
300.935	2.2
301.305	2.21
301.676	2.2
302.046	2.22
302.416	2.22
302.787	2.22
303.157	2.22
303.527	2.23
303.897	2.23
304.267	2.24
304.637	2.24
305.008	2.24
305.378	2.24
305.748	2.26
306.117	2.25
306.487	2.26
306.857	2.28
307.227	2.29
307.597	2.3
307.967	2.3
308.336	2.32
308.706	2.32
309.076	2.31
309.445	2.31
309.815	2.3
310.184	2.29
310.554	2.3
310.923	2.3
311.293	2.3
311.662	2.28
312.031	2.28
312.401	2.29
312.77	2.29
313.139	2.3
313.508	2.29
313.877	2.29
314.246	2.29
314.616	2.28
314.985	2.3
315.353	2.31
315.722	2.31
316.091	2.32
316.46	2.31
316.829	2.32
317.198	2.32
317.567	2.33
317.935	2.34
318.304	2.33
318.672	2.34
319.041	2.36
319.41	2.36
319.778	2.36
320.147	2.36
320.515	2.36
320.883	2.35
321.252	2.32
321.62	2.32
321.988	2.3
322.357	2.29
322.725	2.29
323.093	2.29
323.461	2.27
323.829	2.28
324.197	2.28
324.565	2.27
324.933	2.28
325.301	2.29
325.669	2.29
326.037	2.29
326.405	2.29
326.772	2.29
327.14	2.29
327.508	2.28
327.875	2.28
328.243	2.27
328.61	2.26
328.978	2.25
329.346	2.24
329.713	2.25
330.08	2.24
330.448	2.23
330.815	2.21
331.182	2.2
331.55	2.21
331.917	2.2
332.284	2.18
332.651	2.19
333.018	2.19
333.385	2.19
333.752	2.19
334.119	2.19
334.486	2.18
334.853	2.19
335.22	2.19
335.587	2.19
335.954	2.18
336.32	2.18
336.687	2.18
337.054	2.18
337.42	2.19
337.787	2.2
338.153	2.21
338.52	2.21
338.886	2.2
339.253	2.2
339.619	2.21
339.986	2.2
340.352	2.19
340.718	2.19
341.084	2.2
341.451	2.2
341.817	2.2
342.183	2.2
342.549	2.2
342.915	2.2
343.281	2.21
343.647	2.21
344.013	2.21
344.379	2.22
344.745	2.22
345.11	2.22
345.476	2.24
345.842	2.25
346.208	2.25
346.573	2.24
346.939	2.24
347.304	2.25
347.67	2.26
348.035	2.26
348.401	2.25
348.766	2.25
349.132	2.25
349.497	2.26
349.862	2.26
350.228	2.26
350.593	2.26
350.958	2.27
351.323	2.28
351.688	2.29
352.053	2.29
352.418	2.28
352.783	2.27
353.148	2.26
353.513	2.28
353.878	2.28
354.243	2.27
354.608	2.27
354.972	2.28
355.337	2.28
355.702	2.28
356.066	2.28
356.431	2.28
356.795	2.27
357.16	2.26
357.524	2.27
357.889	2.27
358.253	2.27
358.618	2.27
358.982	2.27
359.346	2.28
359.71	2.28
360.075	2.28
360.439	2.27
360.803	2.27
361.167	2.28
361.531	2.29
361.895	2.29
362.259	2.28
362.623	2.28
362.987	2.28
363.351	2.29
363.714	2.28
364.078	2.28
364.442	2.28
364.806	2.28
365.169	2.28
365.533	2.28
365.896	2.28
366.26	2.28
366.623	2.27
366.987	2.27
367.35	2.28
367.714	2.28
368.077	2.29
368.44	2.29
368.803	2.29
369.167	2.29
369.53	2.29
369.893	2.29
370.256	2.28
370.619	2.29
370.982	2.29
371.345	2.29
371.708	2.3
372.071	2.31
372.434	2.31
372.797	2.31
373.159	2.31
373.522	2.31
373.885	2.32
374.247	2.31
374.61	2.31
374.973	2.31
375.335	2.31
375.698	2.31
376.06	2.3
376.423	2.3
376.785	2.3
377.147	2.3
377.51	2.3
377.872	2.3
378.234	2.3
378.596	2.31
378.958	2.32
379.321	2.31
379.683	2.31
380.045	2.31
380.407	2.31
380.769	2.31
381.13	2.31
381.492	2.31
381.854	2.31
382.216	2.31
382.578	2.31
382.939	2.31
383.301	2.31
383.663	2.3
384.024	2.3
384.386	2.3
384.747	2.29
385.109	2.3
385.47	2.3
385.832	2.3
386.193	2.29
386.554	2.29
386.916	2.29
387.277	2.29
387.638	2.29
387.999	2.29
388.36	2.29
388.721	2.28
389.082	2.29
389.443	2.29
389.804	2.29
390.165	2.29
390.526	2.29
390.887	2.29
391.248	2.29
391.609	2.29
391.969	2.29
392.33	2.29
392.691	2.29
393.051	2.29
393.412	2.29
393.772	2.29
394.133	2.29
394.493	2.29
394.854	2.29
395.214	2.28
395.574	2.29
395.935	2.29
396.295	2.29
396.655	2.29
397.015	2.3
397.376	2.3
397.736	2.3
398.096	2.3
398.456	2.3
398.816	2.31
399.176	2.31
399.535	2.31
399.895	2.31
400.255	2.31
400.615	2.31
400.975	2.32
401.334	2.32
401.694	2.32
402.054	2.33
402.413	2.33
402.773	2.32
403.132	2.33
403.492	2.33
403.851	2.33
404.211	2.33
404.57	2.34
404.929	2.34
405.288	2.34
405.648	2.34
406.007	2.34
406.366	2.34
406.725	2.34
407.084	2.34
407.443	2.34
407.802	2.34
408.161	2.34
408.52	2.34
408.879	2.34
409.238	2.35
409.596	2.35
409.955	2.36
410.314	2.35
410.673	2.35
411.031	2.36
411.39	2.36
411.748	2.36
412.107	2.37
412.465	2.37
412.824	2.39
413.182	2.4
413.54	2.42
413.899	2.44
414.257	2.46
414.615	2.48
414.974	2.5
415.332	2.52
415.69	2.55
416.048	2.57
416.406	2.59
416.764	2.61
417.122	2.63
417.48	2.65
417.838	2.67
418.195	2.69
418.553	2.7
418.911	2.71
419.269	2.71
419.626	2.71
419.984	2.71
420.342	2.71
420.699	2.7
421.057	2.69
421.414	2.68
421.772	2.67
422.129	2.67
422.486	2.66
422.844	2.66
423.201	2.66
423.558	2.66
423.915	2.66
424.273	2.66
424.63	2.66
424.987	2.66
425.344	2.66
425.701	2.66
426.058	2.66
426.415	2.67
426.772	2.67
427.128	2.66
427.485	2.66
427.842	2.65
428.199	2.65
428.555	2.63
428.912	2.62
429.269	2.61
429.625	2.59
429.982	2.58
430.338	2.56
430.695	2.54
431.051	2.52
431.407	2.51
431.764	2.5
432.12	2.49
432.476	2.48
432.832	2.48
433.189	2.48
433.545	2.48
433.901	2.49
434.257	2.51
434.613	2.52
434.969	2.54
435.325	2.55
435.681	2.58
436.036	2.59
436.392	2.61
436.748	2.62
437.104	2.62
437.459	2.64
437.815	2.65
438.171	2.66
438.526	2.68
438.882	2.7
439.237	2.72
439.593	2.75
439.948	2.77
440.304	2.79
440.659	2.81
441.014	2.82
441.369	2.84
441.725	2.85
442.08	2.86
442.435	2.87
442.79	2.87
443.145	2.88
443.5	2.88
443.855	2.88
444.21	2.88
444.565	2.88
444.92	2.87
445.275	2.87
445.629	2.87
445.984	2.86
446.339	2.85
446.693	2.85
447.048	2.84
447.403	2.83
447.757	2.81
448.112	2.8
448.466	2.79
448.82	2.77
449.175	2.76
449.529	2.75
449.883	2.74
450.238	2.72
450.592	2.72
450.946	2.71
451.3	2.71
451.654	2.72
452.008	2.72
452.362	2.72
452.716	2.72
453.07	2.72
453.424	2.72
453.778	2.72
454.132	2.71
454.486	2.71
454.839	2.7
455.193	2.69
455.547	2.68
455.9	2.66
456.254	2.65
456.607	2.64
456.961	2.62
457.314	2.61
457.668	2.6
458.021	2.59
458.375	2.59
458.728	2.59
459.081	2.59
459.434	2.59
459.787	2.6
460.141	2.61
460.494	2.61
460.847	2.62
461.2	2.62
461.553	2.62
461.906	2.63
462.259	2.63
462.611	2.63
462.964	2.63
463.317	2.63
463.67	2.64
464.022	2.64
464.375	2.65
464.728	2.65
465.08	2.65
465.433	2.65
465.785	2.65
466.138	2.64
466.49	2.63
466.843	2.62
467.195	2.61
467.547	2.59
467.899	2.58
468.252	2.56
468.604	2.54
468.956	2.53
469.308	2.52
469.66	2.51
470.012	2.51
470.364	2.51
470.716	2.51
471.068	2.52
471.42	2.53
471.772	2.54
472.123	2.55
472.475	2.56
472.827	2.57
473.178	2.57
473.53	2.58
473.882	2.59
474.233	2.6
474.585	2.62
474.936	2.66
475.288	2.72
475.639	2.79
475.99	2.87
476.342	2.96
476.693	3.06
477.044	3.16
477.395	3.27
477.746	3.38
478.097	3.49
478.448	3.61
478.8	3.72
479.15	3.82
479.501	3.91
479.852	4
480.203	4.08
480.554	4.16
480.905	4.24
481.255	4.31
481.606	4.38
481.957	4.45
482.307	4.51
482.658	4.57
483.009	4.63
483.359	4.68
483.709	4.73
484.06	4.78
484.41	4.84
484.761	4.88
485.111	4.93
485.461	4.98
485.811	5.02
486.162	5.06
486.512	5.09
486.862	5.12
487.212	5.13
487.562	5.14
487.912	5.15
488.262	5.16
488.612	5.15
488.961	5.14
489.311	5.11
489.661	5.07
490.011	5.02
490.36	4.96
490.71	4.88
491.06	4.8
491.409	4.71
491.759	4.61
492.108	4.52
492.458	4.41
492.807	4.31
493.157	4.2
493.506	4.1
493.855	4.01
494.204	3.92
494.554	3.83
494.903	3.75
495.252	3.67
495.601	3.6
495.95	3.52
496.299	3.45
496.648	3.39
496.997	3.33
497.346	3.27
497.695	3.21
498.043	3.16
498.392	3.11
498.741	3.05
499.09	3
499.438	2.96
499.787	2.91
500.135	2.87
500.484	2.83
500.832	2.8
501.181	2.77
501.529	2.76
501.878	2.75
502.226	2.74
502.574	2.74
502.923	2.73
503.271	2.73
503.619	2.74
503.967	2.74
504.315	2.74
504.663	2.73
505.011	2.73
505.359	2.73
505.707	2.73
506.055	2.73
506.403	2.72
506.751	2.73
507.098	2.73
507.446	2.73
507.794	2.74
508.141	2.74
508.489	2.75
508.837	2.76
509.184	2.77
509.531	2.78
509.879	2.79
510.226	2.79
510.574	2.8
510.921	2.82
511.268	2.83
511.616	2.84
511.963	2.85
512.31	2.87
512.657	2.88
513.004	2.9
513.351	2.91
513.698	2.92
514.045	2.92
514.392	2.93
514.739	2.93
515.086	2.93
515.432	2.93
515.779	2.93
516.126	2.93
516.473	2.93
516.819	2.93
517.166	2.93
517.512	2.94
517.859	2.95
518.205	2.96
518.552	2.97
518.898	2.99
519.245	3.02
519.591	3.06
519.937	3.1
520.283	3.16
520.629	3.22
520.976	3.3
521.322	3.37
521.668	3.45
522.014	3.53
522.36	3.61
522.706	3.69
523.052	3.76
523.398	3.83
523.743	3.9
524.089	3.95
524.435	4
524.781	4.05
525.126	4.08
525.472	4.12
525.817	4.16
526.163	4.19
526.509	4.22
526.854	4.25
527.199	4.28
527.545	4.31
527.89	4.34
528.235	4.37
528.581	4.4
528.926	4.43
529.271	4.46
529.616	4.48
529.961	4.5
530.306	4.52
530.651	4.54
530.996	4.55
531.341	4.56
531.686	4.56
532.031	4.56
532.376	4.57
532.721	4.57
533.065	4.58
533.41	4.58
533.755	4.58
534.099	4.57
534.444	4.56
534.788	4.54
535.133	4.51
535.477	4.49
535.822	4.46
536.166	4.42
536.51	4.38
536.855	4.33
537.199	4.28
537.543	4.23
537.887	4.18
538.231	4.14
538.576	4.11
538.92	4.07
539.264	4.03
539.608	3.99
539.951	3.95
540.295	3.91
540.639	3.87
540.983	3.83
541.327	3.79
541.671	3.74
542.014	3.7
542.358	3.67
542.701	3.64
543.045	3.62
543.389	3.6
543.732	3.59
544.075	3.57
544.419	3.56
544.762	3.55
545.105	3.55
545.449	3.54
545.792	3.53
546.135	3.53
546.478	3.52
546.821	3.51
547.165	3.48
547.508	3.46
547.851	3.43
548.194	3.39
548.536	3.35
548.879	3.31
549.222	3.26
549.565	3.21
549.908	3.16
550.25	3.12
550.593	3.08
550.936	3.05
551.278	3.02
551.621	3
551.963	2.98
552.306	2.96
552.648	2.95
552.991	2.94
553.333	2.93
553.675	2.93
554.017	2.93
554.36	2.93
554.702	2.93
555.044	2.94
555.386	2.95
555.728	2.95
556.07	2.96
556.412	2.98
556.754	2.98
557.096	2.98
557.438	2.97
557.78	2.98
558.121	2.98
558.463	2.98
558.805	2.98
559.147	2.98
559.488	2.98
559.83	2.99
560.171	2.99
560.513	2.99
560.854	3
561.196	3
561.537	3
561.878	3
562.22	3
562.561	3
562.902	3
563.243	3
563.584	3.01
563.925	3.01
564.266	3.01
564.607	3.01
564.948	3.02
565.289	3.01
565.63	3.02
565.971	3.02
566.312	3.02
566.653	3.03
566.993	3.03
567.334	3.03
567.675	3.03
568.015	3.04
568.356	3.04
568.696	3.04
569.037	3.04
569.377	3.04
569.718	3.04
570.058	3.04
570.398	3.04
570.739	3.04
571.079	3.04
571.419	3.04
571.759	3.04
572.099	3.04
572.439	3.04
572.779	3.04
573.119	3.04
573.459	3.04
573.799	3.04
574.139	3.04
574.479	3.03
574.819	3.03
575.158	3.03
575.498	3.04
575.838	3.04
576.177	3.04
576.517	3.04
576.856	3.04
577.196	3.03
577.535	3.03
577.875	3.03
578.214	3.03
578.553	3.03
578.893	3.03
579.232	3.03
579.571	3.03
579.91	3.03
580.25	3.03
580.589	3.02
580.928	3.02
581.267	3.02
581.606	3.02
581.945	3.02
582.283	3.02
582.622	3.02
582.961	3.02
583.3	3.03
583.639	3.03
583.977	3.03
584.316	3.03
584.654	3.03
584.993	3.04
585.332	3.04
585.67	3.04
586.008	3.03
586.347	3.03
586.685	3.04
587.024	3.04
587.362	3.04
587.7	3.04
588.038	3.05
588.376	3.05
588.715	3.05
589.053	3.05
589.391	3.05
589.729	3.05
590.067	3.05
590.404	3.05
590.742	3.06
591.08	3.06
591.418	3.07
591.756	3.07
592.093	3.08
592.431	3.08
592.769	3.08
593.106	3.08
593.444	3.08
593.781	3.08
594.119	3.08
594.456	3.08
594.793	3.08
595.131	3.08
595.468	3.08
595.805	3.08
596.143	3.08
596.48	3.08
596.817	3.08
597.154	3.08
597.491	3.08
597.828	3.08
598.165	3.08
598.502	3.09
598.839	3.09
599.176	3.1
599.512	3.1
599.849	3.1
600.186	3.1
600.523	3.1
600.859	3.11
601.196	3.11
601.532	3.11
601.869	3.11
602.205	3.11
602.542	3.11
602.878	3.12
603.215	3.12
603.551	3.12
603.887	3.12
604.223	3.12
604.56	3.12
604.896	3.12
605.232	3.12
605.568	3.11
605.904	3.11
606.24	3.11
606.576	3.11
606.912	3.11
607.248	3.11
607.583	3.11
607.919	3.11
608.255	3.11
608.591	3.12
608.926	3.12
609.262	3.12
609.597	3.12
609.933	3.12
610.268	3.13
610.604	3.13
610.939	3.12
611.275	3.13
611.61	3.13
611.945	3.13
612.281	3.12
612.616	3.12
612.951	3.12
613.286	3.12
613.621	3.12
613.956	3.12
614.291	3.12
614.626	3.12
614.961	3.12
615.296	3.13
615.631	3.13
615.966	3.13
616.3	3.12
616.635	3.12
616.97	3.12
617.304	3.12
617.639	3.12
617.973	3.12
618.308	3.12
618.642	3.12
618.977	3.11
619.311	3.12
619.646	3.12
619.98	3.12
620.314	3.12
620.648	3.12
620.983	3.13
621.317	3.13
621.651	3.13
621.985	3.14
622.319	3.14
622.653	3.14
622.987	3.14
623.321	3.15
623.655	3.15
623.988	3.15
624.322	3.16
624.656	3.16
624.99	3.17
625.323	3.17
625.657	3.17
625.99	3.17
626.324	3.17
626.657	3.17
626.991	3.18
627.324	3.17
627.658	3.17
627.991	3.17
628.324	3.17
628.657	3.17
628.991	3.17
629.324	3.18
629.657	3.18
629.99	3.18
630.323	3.19
630.656	3.19
630.989	3.2
631.322	3.2
631.655	3.21
631.987	3.21
632.32	3.21
632.653	3.22
632.986	3.21
633.318	3.22
633.651	3.22
633.984	3.23
634.316	3.23
634.649	3.23
634.981	3.23
635.313	3.24
635.646	3.24
635.978	3.24
636.31	3.24
636.643	3.25
636.975	3.25
637.307	3.25
637.639	3.25
637.971	3.25
638.303	3.24
638.635	3.24
638.967	3.24
639.299	3.24
639.631	3.24
639.963	3.24
640.295	3.25
640.626	3.25
640.958	3.27
641.29	3.27
641.621	3.27
641.953	3.27
642.285	3.27
642.616	3.27
642.948	3.26
643.279	3.26
643.61	3.27
643.942	3.28
644.273	3.27
644.604	3.28
644.936	3.27
645.267	3.27
645.598	3.27
645.929	3.27
646.26	3.27
646.591	3.27
646.922	3.26
647.253	3.26
647.584	3.27
647.915	3.27
648.245	3.27
648.576	3.26
648.907	3.27
649.238	3.27
649.568	3.26
649.899	3.26
650.229	3.26
650.56	3.26
650.89	3.26
651.221	3.26
651.551	3.27
651.882	3.27
652.212	3.27
652.542	3.27
652.872	3.28
653.203	3.28
653.533	3.28
653.863	3.28
654.193	3.28
654.523	3.28
654.853	3.28
655.183	3.28
655.513	3.29
655.843	3.3
656.172	3.31
656.502	3.31
656.832	3.31
657.162	3.31
657.491	3.31
657.821	3.31
658.15	3.31
658.48	3.32
658.809	3.32
659.139	3.32
659.468	3.32
659.798	3.33
660.127	3.34
660.456	3.34
660.785	3.35
661.115	3.35
661.444	3.36
661.773	3.36
662.102	3.36
662.431	3.36
662.76	3.36
663.089	3.37
663.418	3.38
663.747	3.39
664.076	3.39
664.404	3.4
664.733	3.4
665.062	3.41
665.39	3.41
665.719	3.41
666.048	3.42
666.376	3.42
666.705	3.43
667.033	3.43
667.362	3.43
667.69	3.43
668.018	3.43
668.347	3.44
668.675	3.44
669.003	3.45
669.331	3.44
669.659	3.43
669.987	3.43
670.315	3.44
670.643	3.45
670.971	3.46
671.299	3.46
671.627	3.45
671.955	3.45
672.283	3.46
672.61	3.46
672.938	3.47
673.266	3.47
673.593	3.46
673.921	3.47
674.249	3.47
674.576	3.47
674.904	3.47
675.231	3.47
675.558	3.47
675.886	3.47
676.213	3.48
676.54	3.48
676.867	3.47
677.195	3.47
677.522	3.46
677.849	3.47
678.176	3.47
678.503	3.47
678.83	3.46
679.157	3.47
679.484	3.46
679.81	3.47
680.137	3.47
680.464	3.47
