Data from UWBM88853_Reflection_00004.txt Node
Date: Sun May 02 13:40:24 EDT 2021
User: vgr7
Spectrometer: USB2G7710
Scans to average: 10
Trigger mode: 4
Integration Time (sec): 1.000000E-1
Electric dark correction enabled: true
Boxcar width: 20
XAxis mode: Wavelengths
Number of Pixels in Spectrum: 2048
>>>>>Begin Spectral Data<<<<<
177.721	20.59
178.105	-24.68
178.488	-22.37
178.871	52.63
179.254	65.38
179.636	9.27
180.019	19.44
180.402	23.61
180.785	30.77
181.168	34.86
181.55	27.57
181.933	27.54
182.316	20.08
182.698	13.49
183.081	4.68
183.463	4.85
183.846	2.85
184.228	9.26
184.611	10.34
184.993	11.07
185.376	10.38
185.758	14.53
186.14	18.86
186.522	15.26
186.904	12.22
187.287	10.91
187.669	11.3
188.051	8.96
188.433	6.36
188.815	1.55
189.197	3
189.579	2.69
189.961	0.76
190.342	-0.9
190.724	-1.44
191.106	0.25
191.488	1.6
191.869	-0.87
192.251	-4.49
192.633	-4.64
193.014	-4.04
193.396	-7.64
193.777	-7
194.159	-6.29
194.54	-8.76
194.922	-9.91
195.303	-9.34
195.684	-10.72
196.065	-12.12
196.447	-12.62
196.828	-13.07
197.209	-12.63
197.59	-15.19
197.971	-15.56
198.352	-13.37
198.733	-9.59
199.114	-8.66
199.495	-7.79
199.876	-8.76
200.257	-8.55
200.638	-9.57
201.018	-8.45
201.399	-8.51
201.78	-8.9
202.16	-9.68
202.541	-9.33
202.922	-8.76
203.302	-8.76
203.683	-7.71
204.063	-5.64
204.444	-5.12
204.824	-6.26
205.204	-6.51
205.585	-4.97
205.965	-3.16
206.345	-3.6
206.725	-4.96
207.106	-5.19
207.486	-4.24
207.866	-1.89
208.246	-2.03
208.626	-2.93
209.006	-1.74
209.386	-0.86
209.766	-1.03
210.145	-0.55
210.525	-0.67
210.905	0.57
211.285	-0.98
211.664	-0.42
212.044	-1.18
212.424	-1.89
212.803	-1.18
213.183	0.52
213.562	1.94
213.942	0.83
214.321	-0.99
214.701	-2
215.08	-1.82
215.459	-3
215.838	-3.72
216.218	-4.72
216.597	-6.14
216.976	-5.29
217.355	-4.52
217.734	-4.95
218.113	-3.73
218.492	-4.74
218.871	-5.61
219.25	-5.31
219.629	-4.84
220.008	-3.77
220.387	-4.22
220.766	-3.36
221.144	-2.87
221.523	-2.86
221.902	-2.42
222.28	-0.76
222.659	-1.73
223.037	-1.81
223.416	-0.38
223.794	0.01
224.173	1.21
224.551	1.13
224.929	2.22
225.308	2.46
225.686	2.66
226.064	2.71
226.442	2.77
226.821	3.86
227.199	4.2
227.577	4.58
227.955	4.85
228.333	4.58
228.711	3.99
229.089	3.29
229.467	2.92
229.845	3.1
230.222	3.36
230.6	3.24
230.978	3.21
231.356	3.49
231.733	3.82
232.111	3.97
232.488	3.49
232.866	3.34
233.243	3.54
233.621	3.44
233.998	3.74
234.376	3.97
234.753	3.89
235.13	3.82
235.508	3.98
235.885	4.06
236.262	4.01
236.639	4.06
237.016	4.06
237.393	4.14
237.77	4.18
238.147	4.34
238.524	4.36
238.901	4.26
239.278	4.32
239.655	4.32
240.032	4.32
240.409	4.27
240.785	4.34
241.162	4.39
241.539	4.4
241.915	4.43
242.292	4.45
242.668	4.44
243.045	4.45
243.421	4.43
243.798	4.45
244.174	4.49
244.551	4.51
244.927	4.54
245.303	4.55
245.679	4.5
246.056	4.47
246.432	4.49
246.808	4.45
247.184	4.47
247.56	4.5
247.936	4.5
248.312	4.49
248.688	4.46
249.064	4.47
249.44	4.43
249.815	4.38
250.191	4.36
250.567	4.39
250.943	4.35
251.318	4.34
251.694	4.34
252.069	4.3
252.445	4.3
252.82	4.29
253.196	4.25
253.571	4.22
253.947	4.21
254.322	4.19
254.697	4.18
255.073	4.15
255.448	4.15
255.823	4.11
256.198	4.08
256.573	4.05
256.948	4.04
257.323	4.01
257.698	3.96
258.073	3.93
258.448	3.91
258.823	3.89
259.198	3.85
259.573	3.82
259.948	3.85
260.322	3.83
260.697	3.81
261.072	3.8
261.446	3.81
261.821	3.8
262.195	3.81
262.57	3.8
262.944	3.78
263.319	3.79
263.693	3.78
264.067	3.79
264.442	3.77
264.816	3.78
265.19	3.79
265.564	3.79
265.938	3.78
266.313	3.79
266.687	3.79
267.061	3.78
267.435	3.79
267.809	3.79
268.183	3.79
268.556	3.79
268.93	3.79
269.304	3.79
269.678	3.78
270.051	3.77
270.425	3.75
270.799	3.75
271.172	3.75
271.546	3.74
271.919	3.75
272.293	3.74
272.666	3.75
273.04	3.77
273.413	3.81
273.787	3.8
274.16	3.81
274.533	3.84
274.906	3.86
275.279	3.85
275.653	3.86
276.026	3.86
276.399	3.88
276.772	3.9
277.145	3.9
277.518	3.9
277.891	3.92
278.263	3.92
278.636	3.93
279.009	3.91
279.382	3.92
279.755	3.92
280.127	3.92
280.5	3.94
280.872	3.95
281.245	3.95
281.617	3.94
281.99	3.95
282.362	3.93
282.735	3.94
283.107	3.93
283.479	3.92
283.852	3.92
284.224	3.91
284.596	3.9
284.968	3.91
285.34	3.92
285.713	3.93
286.085	3.93
286.457	3.95
286.829	3.94
287.201	3.95
287.572	3.93
287.944	3.92
288.316	3.9
288.688	3.88
289.06	3.89
289.431	3.9
289.803	3.9
290.175	3.89
290.546	3.89
290.918	3.91
291.289	3.91
291.661	3.9
292.032	3.88
292.403	3.88
292.775	3.89
293.146	3.87
293.517	3.87
293.889	3.87
294.26	3.88
294.631	3.89
295.002	3.9
295.373	3.91
295.744	3.89
296.115	3.89
296.486	3.9
296.857	3.9
297.228	3.89
297.599	3.9
297.97	3.9
298.34	3.9
298.711	3.9
299.082	3.9
299.452	3.91
299.823	3.92
300.194	3.92
300.564	3.91
300.935	3.9
301.305	3.91
301.676	3.91
302.046	3.91
302.416	3.91
302.787	3.92
303.157	3.92
303.527	3.93
303.897	3.93
304.267	3.94
304.637	3.93
305.008	3.92
305.378	3.93
305.748	3.92
306.117	3.92
306.487	3.91
306.857	3.93
307.227	3.93
307.597	3.93
307.967	3.91
308.336	3.92
308.706	3.92
309.076	3.9
309.445	3.9
309.815	3.89
310.184	3.88
310.554	3.88
310.923	3.88
311.293	3.88
311.662	3.88
312.031	3.87
312.401	3.88
312.77	3.87
313.139	3.87
313.508	3.88
313.877	3.89
314.246	3.89
314.616	3.89
314.985	3.88
315.353	3.88
315.722	3.87
316.091	3.87
316.46	3.85
316.829	3.86
317.198	3.87
317.567	3.86
317.935	3.87
318.304	3.87
318.672	3.86
319.041	3.87
319.41	3.86
319.778	3.85
320.147	3.84
320.515	3.82
320.883	3.82
321.252	3.8
321.62	3.8
321.988	3.79
322.357	3.79
322.725	3.79
323.093	3.79
323.461	3.78
323.829	3.78
324.197	3.79
324.565	3.78
324.933	3.78
325.301	3.79
325.669	3.79
326.037	3.76
326.405	3.76
326.772	3.75
327.14	3.75
327.508	3.73
327.875	3.74
328.243	3.73
328.61	3.7
328.978	3.7
329.346	3.7
329.713	3.72
330.08	3.71
330.448	3.71
330.815	3.7
331.182	3.7
331.55	3.71
331.917	3.71
332.284	3.69
332.651	3.68
333.018	3.69
333.385	3.7
333.752	3.7
334.119	3.69
334.486	3.69
334.853	3.68
335.22	3.69
335.587	3.7
335.954	3.71
336.32	3.7
336.687	3.69
337.054	3.68
337.42	3.68
337.787	3.67
338.153	3.69
338.52	3.69
338.886	3.67
339.253	3.68
339.619	3.68
339.986	3.69
340.352	3.67
340.718	3.68
341.084	3.69
341.451	3.68
341.817	3.69
342.183	3.69
342.549	3.69
342.915	3.69
343.281	3.7
343.647	3.71
344.013	3.71
344.379	3.7
344.745	3.69
345.11	3.7
345.476	3.71
345.842	3.71
346.208	3.72
346.573	3.71
346.939	3.7
347.304	3.71
347.67	3.71
348.035	3.71
348.401	3.71
348.766	3.71
349.132	3.71
349.497	3.71
349.862	3.71
350.228	3.72
350.593	3.71
350.958	3.72
351.323	3.73
351.688	3.74
352.053	3.75
352.418	3.76
352.783	3.75
353.148	3.74
353.513	3.75
353.878	3.76
354.243	3.76
354.608	3.75
354.972	3.76
355.337	3.77
355.702	3.77
356.066	3.78
356.431	3.78
356.795	3.78
357.16	3.78
357.524	3.79
357.889	3.79
358.253	3.79
358.618	3.79
358.982	3.79
359.346	3.79
359.71	3.79
360.075	3.79
360.439	3.78
360.803	3.79
361.167	3.79
361.531	3.79
361.895	3.79
362.259	3.79
362.623	3.79
362.987	3.79
363.351	3.78
363.714	3.79
364.078	3.79
364.442	3.78
364.806	3.79
365.169	3.79
365.533	3.79
365.896	3.78
366.26	3.79
366.623	3.78
366.987	3.78
367.35	3.78
367.714	3.78
368.077	3.78
368.44	3.77
368.803	3.77
369.167	3.77
369.53	3.78
369.893	3.76
370.256	3.76
370.619	3.75
370.982	3.75
371.345	3.76
371.708	3.75
372.071	3.75
372.434	3.75
372.797	3.75
373.159	3.75
373.522	3.75
373.885	3.75
374.247	3.75
374.61	3.74
374.973	3.74
375.335	3.74
375.698	3.74
376.06	3.74
376.423	3.73
376.785	3.73
377.147	3.73
377.51	3.74
377.872	3.73
378.234	3.72
378.596	3.72
378.958	3.71
379.321	3.71
379.683	3.71
380.045	3.7
380.407	3.7
380.769	3.7
381.13	3.69
381.492	3.69
381.854	3.69
382.216	3.68
382.578	3.69
382.939	3.69
383.301	3.69
383.663	3.69
384.024	3.68
384.386	3.68
384.747	3.68
385.109	3.68
385.47	3.68
385.832	3.68
386.193	3.67
386.554	3.67
386.916	3.67
387.277	3.66
387.638	3.66
387.999	3.66
388.36	3.66
388.721	3.66
389.082	3.65
389.443	3.66
389.804	3.65
390.165	3.65
390.526	3.65
390.887	3.65
391.248	3.64
391.609	3.64
391.969	3.64
392.33	3.64
392.691	3.64
393.051	3.64
393.412	3.64
393.772	3.64
394.133	3.64
394.493	3.64
394.854	3.64
395.214	3.64
395.574	3.64
395.935	3.64
396.295	3.63
396.655	3.63
397.015	3.63
397.376	3.62
397.736	3.62
398.096	3.62
398.456	3.62
398.816	3.62
399.176	3.62
399.535	3.62
399.895	3.62
400.255	3.62
400.615	3.62
400.975	3.62
401.334	3.62
401.694	3.62
402.054	3.62
402.413	3.62
402.773	3.62
403.132	3.62
403.492	3.62
403.851	3.62
404.211	3.62
404.57	3.62
404.929	3.62
405.288	3.62
405.648	3.62
406.007	3.63
406.366	3.63
406.725	3.63
407.084	3.63
407.443	3.63
407.802	3.63
408.161	3.63
408.52	3.64
408.879	3.64
409.238	3.64
409.596	3.64
409.955	3.65
410.314	3.65
410.673	3.65
411.031	3.66
411.39	3.66
411.748	3.67
412.107	3.68
412.465	3.69
412.824	3.71
413.182	3.73
413.54	3.75
413.899	3.78
414.257	3.81
414.615	3.84
414.974	3.87
415.332	3.91
415.69	3.95
416.048	3.97
416.406	4.02
416.764	4.05
417.122	4.07
417.48	4.11
417.838	4.14
418.195	4.16
418.553	4.18
418.911	4.2
419.269	4.21
419.626	4.21
419.984	4.2
420.342	4.19
420.699	4.18
421.057	4.16
421.414	4.14
421.772	4.13
422.129	4.12
422.486	4.12
422.844	4.12
423.201	4.12
423.558	4.12
423.915	4.12
424.273	4.12
424.63	4.12
424.987	4.12
425.344	4.12
425.701	4.12
426.058	4.12
426.415	4.13
426.772	4.13
427.128	4.12
427.485	4.11
427.842	4.11
428.199	4.09
428.555	4.08
428.912	4.06
429.269	4.04
429.625	4.01
429.982	3.99
430.338	3.96
430.695	3.94
431.051	3.91
431.407	3.89
431.764	3.88
432.12	3.86
432.476	3.84
432.832	3.83
433.189	3.83
433.545	3.84
433.901	3.85
434.257	3.87
434.613	3.89
434.969	3.92
435.325	3.94
435.681	3.98
436.036	4
436.392	4.02
436.748	4.04
437.104	4.05
437.459	4.06
437.815	4.08
438.171	4.1
438.526	4.13
438.882	4.15
439.237	4.19
439.593	4.22
439.948	4.25
440.304	4.28
440.659	4.31
441.014	4.33
441.369	4.35
441.725	4.37
442.08	4.39
442.435	4.4
442.79	4.4
443.145	4.41
443.5	4.41
443.855	4.41
444.21	4.41
444.565	4.41
444.92	4.4
445.275	4.39
445.629	4.38
445.984	4.37
446.339	4.36
446.693	4.35
447.048	4.33
447.403	4.32
447.757	4.3
448.112	4.28
448.466	4.26
448.82	4.23
449.175	4.21
449.529	4.19
449.883	4.17
450.238	4.15
450.592	4.15
450.946	4.14
451.3	4.13
451.654	4.14
452.008	4.15
452.362	4.15
452.716	4.15
453.07	4.16
453.424	4.15
453.778	4.14
454.132	4.14
454.486	4.13
454.839	4.11
455.193	4.09
455.547	4.08
455.9	4.05
456.254	4.04
456.607	4.01
456.961	3.98
457.314	3.96
457.668	3.95
458.021	3.95
458.375	3.95
458.728	3.95
459.081	3.95
459.434	3.96
459.787	3.97
460.141	3.98
460.494	3.99
460.847	4
461.2	4.01
461.553	4.01
461.906	4.02
462.259	4.03
462.611	4.03
462.964	4.03
463.317	4.04
463.67	4.05
464.022	4.06
464.375	4.07
464.728	4.07
465.08	4.07
465.433	4.08
465.785	4.08
466.138	4.07
466.49	4.05
466.843	4.03
467.195	4.01
467.547	3.99
467.899	3.97
468.252	3.95
468.604	3.92
468.956	3.9
469.308	3.89
469.66	3.89
470.012	3.88
470.364	3.89
470.716	3.89
471.068	3.91
471.42	3.93
471.772	3.95
472.123	3.96
472.475	3.97
472.827	3.98
473.178	3.98
473.53	3.99
473.882	4.01
474.233	4.02
474.585	4.05
474.936	4.12
475.288	4.2
475.639	4.31
475.99	4.44
476.342	4.58
476.693	4.73
477.044	4.89
477.395	5.05
477.746	5.22
478.097	5.38
478.448	5.55
478.8	5.72
479.15	5.87
479.501	6.01
479.852	6.14
480.203	6.27
480.554	6.38
480.905	6.5
481.255	6.61
481.606	6.71
481.957	6.81
482.307	6.9
482.658	6.99
483.009	7.08
483.359	7.16
483.709	7.24
484.06	7.31
484.41	7.39
484.761	7.46
485.111	7.53
485.461	7.6
485.811	7.66
486.162	7.72
486.512	7.77
486.862	7.81
487.212	7.83
487.562	7.85
487.912	7.86
488.262	7.87
488.612	7.87
488.961	7.85
489.311	7.81
489.661	7.74
490.011	7.66
490.36	7.56
490.71	7.44
491.06	7.32
491.409	7.18
491.759	7.04
492.108	6.9
492.458	6.74
492.807	6.59
493.157	6.43
493.506	6.28
493.855	6.14
494.204	6
494.554	5.87
494.903	5.75
495.252	5.64
495.601	5.53
495.95	5.42
496.299	5.32
496.648	5.23
496.997	5.14
497.346	5.05
497.695	4.97
498.043	4.89
498.392	4.81
498.741	4.74
499.09	4.67
499.438	4.6
499.787	4.54
500.135	4.48
500.484	4.43
500.832	4.38
501.181	4.35
501.529	4.33
501.878	4.33
502.226	4.32
502.574	4.33
502.923	4.33
503.271	4.34
503.619	4.35
503.967	4.35
504.315	4.35
504.663	4.36
505.011	4.36
505.359	4.37
505.707	4.37
506.055	4.38
506.403	4.39
506.751	4.4
507.098	4.41
507.446	4.42
507.794	4.44
508.141	4.46
508.489	4.48
508.837	4.5
509.184	4.52
509.531	4.54
509.879	4.56
510.226	4.59
510.574	4.61
510.921	4.64
511.268	4.67
511.616	4.7
511.963	4.73
512.31	4.77
512.657	4.8
513.004	4.83
513.351	4.86
513.698	4.88
514.045	4.89
514.392	4.9
514.739	4.91
515.086	4.92
515.432	4.92
515.779	4.93
516.126	4.94
516.473	4.95
516.819	4.96
517.166	4.97
517.512	4.99
517.859	5.02
518.205	5.04
518.552	5.08
518.898	5.12
519.245	5.17
519.591	5.24
519.937	5.33
520.283	5.44
520.629	5.56
520.976	5.7
521.322	5.84
521.668	5.98
522.014	6.13
522.36	6.27
522.706	6.41
523.052	6.55
523.398	6.67
523.743	6.78
524.089	6.88
524.435	6.96
524.781	7.04
525.126	7.11
525.472	7.18
525.817	7.25
526.163	7.31
526.509	7.36
526.854	7.42
527.199	7.47
527.545	7.53
527.89	7.59
528.235	7.65
528.581	7.71
528.926	7.76
529.271	7.81
529.616	7.86
529.961	7.89
530.306	7.93
530.651	7.96
530.996	7.97
531.341	7.99
531.686	8
532.031	8
532.376	8.01
532.721	8.01
533.065	8.02
533.41	8.04
533.755	8.04
534.099	8.03
534.444	8
534.788	7.96
535.133	7.92
535.477	7.87
535.822	7.82
536.166	7.75
536.51	7.68
536.855	7.6
537.199	7.51
537.543	7.42
537.887	7.34
538.231	7.28
538.576	7.21
538.92	7.15
539.264	7.08
539.608	7.02
539.951	6.95
540.295	6.88
540.639	6.81
540.983	6.74
541.327	6.67
541.671	6.59
542.014	6.52
542.358	6.46
542.701	6.41
543.045	6.38
543.389	6.35
543.732	6.33
544.075	6.31
544.419	6.29
544.762	6.28
545.105	6.27
545.449	6.26
545.792	6.25
546.135	6.25
546.478	6.23
546.821	6.21
547.165	6.18
547.508	6.13
547.851	6.08
548.194	6.02
548.536	5.95
548.879	5.88
549.222	5.8
549.565	5.72
549.908	5.64
550.25	5.56
550.593	5.49
550.936	5.44
551.278	5.4
551.621	5.37
551.963	5.34
552.306	5.31
552.648	5.3
552.991	5.28
553.333	5.27
553.675	5.26
554.017	5.26
554.36	5.27
554.702	5.27
555.044	5.29
555.386	5.31
555.728	5.33
556.07	5.34
556.412	5.36
556.754	5.36
557.096	5.36
557.438	5.36
557.78	5.37
558.121	5.37
558.463	5.37
558.805	5.37
559.147	5.38
559.488	5.38
559.83	5.38
560.171	5.39
560.513	5.39
560.854	5.39
561.196	5.39
561.537	5.4
561.878	5.4
562.22	5.4
562.561	5.4
562.902	5.4
563.243	5.4
563.584	5.4
563.925	5.41
564.266	5.41
564.607	5.42
564.948	5.41
565.289	5.41
565.63	5.42
565.971	5.43
566.312	5.43
566.653	5.43
566.993	5.43
567.334	5.44
567.675	5.44
568.015	5.45
568.356	5.45
568.696	5.45
569.037	5.45
569.377	5.45
569.718	5.46
570.058	5.46
570.398	5.46
570.739	5.46
571.079	5.46
571.419	5.47
571.759	5.47
572.099	5.47
572.439	5.47
572.779	5.47
573.119	5.47
573.459	5.47
573.799	5.47
574.139	5.47
574.479	5.47
574.819	5.47
575.158	5.48
575.498	5.47
575.838	5.47
576.177	5.48
576.517	5.48
576.856	5.48
577.196	5.48
577.535	5.48
577.875	5.48
578.214	5.48
578.553	5.48
578.893	5.48
579.232	5.48
579.571	5.48
579.91	5.48
580.25	5.47
580.589	5.47
580.928	5.47
581.267	5.47
581.606	5.47
581.945	5.47
582.283	5.47
582.622	5.47
582.961	5.47
583.3	5.48
583.639	5.48
583.977	5.48
584.316	5.48
584.654	5.49
584.993	5.5
585.332	5.5
585.67	5.5
586.008	5.5
586.347	5.5
586.685	5.5
587.024	5.5
587.362	5.5
587.7	5.5
588.038	5.5
588.376	5.5
588.715	5.5
589.053	5.5
589.391	5.5
589.729	5.5
590.067	5.5
590.404	5.51
590.742	5.51
591.08	5.52
591.418	5.52
591.756	5.53
592.093	5.53
592.431	5.53
592.769	5.53
593.106	5.54
593.444	5.54
593.781	5.54
594.119	5.54
594.456	5.54
594.793	5.54
595.131	5.54
595.468	5.54
595.805	5.54
596.143	5.54
596.48	5.54
596.817	5.54
597.154	5.55
597.491	5.55
597.828	5.56
598.165	5.56
598.502	5.56
598.839	5.56
599.176	5.56
599.512	5.56
599.849	5.56
600.186	5.57
600.523	5.57
600.859	5.58
601.196	5.59
601.532	5.59
601.869	5.59
602.205	5.59
602.542	5.59
602.878	5.6
603.215	5.6
603.551	5.6
603.887	5.61
604.223	5.61
604.56	5.61
604.896	5.61
605.232	5.61
605.568	5.61
605.904	5.62
606.24	5.62
606.576	5.62
606.912	5.62
607.248	5.62
607.583	5.62
607.919	5.62
608.255	5.63
608.591	5.63
608.926	5.64
609.262	5.64
609.597	5.64
609.933	5.64
610.268	5.64
610.604	5.65
610.939	5.64
611.275	5.64
611.61	5.64
611.945	5.64
612.281	5.64
612.616	5.64
612.951	5.64
613.286	5.64
613.621	5.64
613.956	5.64
614.291	5.64
614.626	5.64
614.961	5.64
615.296	5.65
615.631	5.65
615.966	5.65
616.3	5.66
616.635	5.66
616.97	5.66
617.304	5.66
617.639	5.66
617.973	5.66
618.308	5.66
618.642	5.66
618.977	5.67
619.311	5.67
619.646	5.67
619.98	5.67
620.314	5.68
620.648	5.68
620.983	5.69
621.317	5.69
621.651	5.69
621.985	5.7
622.319	5.71
622.653	5.71
622.987	5.72
623.321	5.72
623.655	5.73
623.988	5.73
624.322	5.73
624.656	5.74
624.99	5.74
625.323	5.74
625.657	5.74
625.99	5.74
626.324	5.74
626.657	5.75
626.991	5.76
627.324	5.76
627.658	5.75
627.991	5.76
628.324	5.76
628.657	5.77
628.991	5.76
629.324	5.77
629.657	5.78
629.99	5.78
630.323	5.78
630.656	5.79
630.989	5.79
631.322	5.79
631.655	5.8
631.987	5.81
632.32	5.82
632.653	5.81
632.986	5.82
633.318	5.82
633.651	5.82
633.984	5.82
634.316	5.82
634.649	5.82
634.981	5.84
635.313	5.84
635.646	5.84
635.978	5.84
636.31	5.85
636.643	5.84
636.975	5.86
637.307	5.86
637.639	5.85
637.971	5.86
638.303	5.85
638.635	5.85
638.967	5.85
639.299	5.85
639.631	5.85
639.963	5.86
640.295	5.87
640.626	5.87
640.958	5.89
641.29	5.9
641.621	5.9
641.953	5.9
642.285	5.9
642.616	5.91
642.948	5.91
643.279	5.91
643.61	5.92
643.942	5.93
644.273	5.93
644.604	5.93
644.936	5.94
645.267	5.94
645.598	5.93
645.929	5.93
646.26	5.94
646.591	5.93
646.922	5.94
647.253	5.94
647.584	5.95
647.915	5.95
648.245	5.95
648.576	5.95
648.907	5.96
649.238	5.96
649.568	5.96
649.899	5.95
650.229	5.95
650.56	5.95
650.89	5.96
651.221	5.96
651.551	5.97
651.882	5.97
652.212	5.98
652.542	5.99
652.872	5.99
653.203	6
653.533	6
653.863	5.99
654.193	6
654.523	6
654.853	6
655.183	6
655.513	6.01
655.843	6.01
656.172	6.01
656.502	6.02
656.832	6.02
657.162	6.01
657.491	6.01
657.821	6.01
658.15	6.02
658.48	6.03
658.809	6.03
659.139	6.04
659.468	6.04
659.798	6.05
660.127	6.05
660.456	6.06
660.785	6.06
661.115	6.07
661.444	6.07
661.773	6.09
662.102	6.08
662.431	6.08
662.76	6.08
663.089	6.08
663.418	6.1
663.747	6.11
664.076	6.12
664.404	6.12
664.733	6.13
665.062	6.14
665.39	6.16
665.719	6.16
666.048	6.18
666.376	6.19
666.705	6.19
667.033	6.2
667.362	6.2
667.69	6.21
668.018	6.21
668.347	6.22
668.675	6.23
669.003	6.23
669.331	6.24
669.659	6.24
669.987	6.23
670.315	6.24
670.643	6.25
670.971	6.26
671.299	6.27
671.627	6.26
671.955	6.26
672.283	6.26
672.61	6.26
672.938	6.27
673.266	6.27
673.593	6.28
673.921	6.28
674.249	6.28
674.576	6.29
674.904	6.29
675.231	6.29
675.558	6.3
675.886	6.31
676.213	6.31
676.54	6.32
676.867	6.32
677.195	6.31
677.522	6.31
677.849	6.32
678.176	6.32
678.503	6.33
678.83	6.33
679.157	6.33
679.484	6.33
679.81	6.33
680.137	6.33
680.464	6.33
680.791	6.34
681.117	6.34
