Data from UWBM55954_Reflection_00002.txt Node
Date: Sun May 02 13:50:28 EDT 2021
User: vgr7
Spectrometer: USB2G7710
Scans to average: 10
Trigger mode: 4
Integration Time (sec): 1.000000E-1
Electric dark correction enabled: true
Boxcar width: 20
XAxis mode: Wavelengths
Number of Pixels in Spectrum: 2048
>>>>>Begin Spectral Data<<<<<
177.721	42.63
178.105	69.11
178.488	58.88
178.871	69.23
179.254	69.91
179.636	55.95
180.019	35.66
180.402	23.53
180.785	19.78
181.168	25.7
181.55	27.46
181.933	26.71
182.316	19.68
182.698	24.9
183.081	17.77
183.463	16.18
183.846	12.31
184.228	11.17
184.611	9.07
184.993	11.62
185.376	8.66
185.758	10.57
186.14	14.26
186.522	11.36
186.904	8.35
187.287	6.5
187.669	9.42
188.051	6.66
188.433	9.41
188.815	5.89
189.197	9.34
189.579	9.24
189.961	8.65
190.342	8.12
190.724	9.16
191.106	8.82
191.488	9.5
191.869	8.19
192.251	5.53
192.633	5.13
193.014	4.31
193.396	2.48
193.777	2.36
194.159	1.94
194.54	1.15
194.922	-0.26
195.303	-0.92
195.684	-1.76
196.065	-1.24
196.447	-0.18
196.828	-1.6
197.209	-3.21
197.59	-5.52
197.971	-3.58
198.352	-4.53
198.733	-1.54
199.114	-2.25
199.495	-0.24
199.876	0.06
200.257	0.91
200.638	-1.74
201.018	1.24
201.399	2.37
201.78	1.14
202.16	1.05
202.541	1.73
202.922	1.81
203.302	0.67
203.683	2.21
204.063	1.82
204.444	2.09
204.824	1.64
205.204	1.21
205.585	2.01
205.965	2.82
206.345	1.93
206.725	2.66
207.106	1.88
207.486	1.34
207.866	3.54
208.246	2.34
208.626	3.35
209.006	5.14
209.386	5.1
209.766	4.75
210.145	4.26
210.525	4.79
210.905	5.75
211.285	6
211.664	6.49
212.044	4.89
212.424	3.73
212.803	3.89
213.183	4.97
213.562	5.67
213.942	5.43
214.321	4.01
214.701	4.8
215.08	4.44
215.459	3.45
215.838	1.62
216.218	2.08
216.597	0.35
216.976	0.52
217.355	-0.13
217.734	0.45
218.113	-0.58
218.492	-1.49
218.871	-0.74
219.25	0.05
219.629	-0.01
220.008	-0.23
220.387	-1.45
220.766	-0.26
221.144	-0.85
221.523	0.32
221.902	1.43
222.28	0.77
222.659	1.21
223.037	1.07
223.416	1.65
223.794	2.41
224.173	2.23
224.551	1.2
224.929	2.01
225.308	2.53
225.686	2.84
226.064	3.08
226.442	3.07
226.821	3.47
227.199	3.42
227.577	3.89
227.955	4.68
228.333	4.75
228.711	4.81
229.089	4.1
229.467	3.82
229.845	3.86
230.222	3.83
230.6	3.73
230.978	3.91
231.356	4.3
231.733	4.53
232.111	4.61
232.488	4.17
232.866	4.13
233.243	3.97
233.621	4.08
233.998	4.19
234.376	4.3
234.753	3.9
235.13	3.81
235.508	3.98
235.885	4.13
236.262	3.98
236.639	4.09
237.016	4.12
237.393	4.1
237.77	4.16
238.147	4.13
238.524	4.18
238.901	4.1
239.278	4.16
239.655	4.29
240.032	4.37
240.409	4.37
240.785	4.43
241.162	4.46
241.539	4.44
241.915	4.51
242.292	4.51
242.668	4.52
243.045	4.45
243.421	4.41
243.798	4.42
244.174	4.44
244.551	4.44
244.927	4.45
245.303	4.48
245.679	4.49
246.056	4.48
246.432	4.48
246.808	4.45
247.184	4.44
247.56	4.47
247.936	4.49
248.312	4.5
248.688	4.53
249.064	4.5
249.44	4.51
249.815	4.45
250.191	4.46
250.567	4.49
250.943	4.47
251.318	4.44
251.694	4.47
252.069	4.44
252.445	4.43
252.82	4.4
253.196	4.39
253.571	4.39
253.947	4.37
254.322	4.35
254.697	4.37
255.073	4.32
255.448	4.32
255.823	4.27
256.198	4.24
256.573	4.23
256.948	4.24
257.323	4.21
257.698	4.17
258.073	4.14
258.448	4.15
258.823	4.15
259.198	4.14
259.573	4.12
259.948	4.13
260.322	4.13
260.697	4.1
261.072	4.09
261.446	4.09
261.821	4.09
262.195	4.09
262.57	4.08
262.944	4.05
263.319	4.06
263.693	4.06
264.067	4.05
264.442	4.07
264.816	4.06
265.19	4.06
265.564	4.08
265.938	4.05
266.313	4.06
266.687	4.06
267.061	4.04
267.435	4.04
267.809	4.03
268.183	4.02
268.556	4.02
268.93	4
269.304	4
269.678	4.01
270.051	3.98
270.425	3.97
270.799	3.96
271.172	3.98
271.546	3.98
271.919	3.98
272.293	3.96
272.666	3.94
273.04	3.96
273.413	4
273.787	4.01
274.16	4.01
274.533	4.01
274.906	4
275.279	4.01
275.653	4.03
276.026	4.03
276.399	4.04
276.772	4.06
277.145	4.05
277.518	4.06
277.891	4.07
278.263	4.08
278.636	4.08
279.009	4.07
279.382	4.08
279.755	4.08
280.127	4.08
280.5	4.1
280.872	4.1
281.245	4.1
281.617	4.11
281.99	4.12
282.362	4.12
282.735	4.11
283.107	4.12
283.479	4.13
283.852	4.13
284.224	4.14
284.596	4.13
284.968	4.13
285.34	4.14
285.713	4.16
286.085	4.17
286.457	4.16
286.829	4.14
287.201	4.15
287.572	4.14
287.944	4.15
288.316	4.14
288.688	4.14
289.06	4.14
289.431	4.13
289.803	4.15
290.175	4.15
290.546	4.15
290.918	4.14
291.289	4.16
291.661	4.16
292.032	4.13
292.403	4.14
292.775	4.15
293.146	4.15
293.517	4.16
293.889	4.17
294.26	4.18
294.631	4.19
295.002	4.19
295.373	4.19
295.744	4.19
296.115	4.19
296.486	4.2
296.857	4.21
297.228	4.2
297.599	4.23
297.97	4.23
298.34	4.23
298.711	4.23
299.082	4.24
299.452	4.25
299.823	4.26
300.194	4.26
300.564	4.26
300.935	4.25
301.305	4.25
301.676	4.27
302.046	4.28
302.416	4.27
302.787	4.27
303.157	4.28
303.527	4.28
303.897	4.26
304.267	4.27
304.637	4.27
305.008	4.25
305.378	4.27
305.748	4.26
306.117	4.25
306.487	4.27
306.857	4.26
307.227	4.28
307.597	4.28
307.967	4.26
308.336	4.26
308.706	4.25
309.076	4.23
309.445	4.23
309.815	4.22
310.184	4.23
310.554	4.22
310.923	4.23
311.293	4.22
311.662	4.21
312.031	4.2
312.401	4.2
312.77	4.18
313.139	4.19
313.508	4.19
313.877	4.2
314.246	4.18
314.616	4.17
314.985	4.17
315.353	4.18
315.722	4.16
316.091	4.17
316.46	4.15
316.829	4.14
317.198	4.15
317.567	4.15
317.935	4.16
318.304	4.15
318.672	4.14
319.041	4.15
319.41	4.14
319.778	4.14
320.147	4.12
320.515	4.1
320.883	4.09
321.252	4.08
321.62	4.06
321.988	4.07
322.357	4.07
322.725	4.06
323.093	4.07
323.461	4.05
323.829	4.06
324.197	4.07
324.565	4.05
324.933	4.05
325.301	4.03
325.669	4.04
326.037	4.03
326.405	4.03
326.772	4.03
327.14	4.03
327.508	4.02
327.875	4.01
328.243	4
328.61	4
328.978	3.98
329.346	3.98
329.713	3.98
330.08	3.98
330.448	3.96
330.815	3.94
331.182	3.94
331.55	3.95
331.917	3.94
332.284	3.92
332.651	3.92
333.018	3.92
333.385	3.91
333.752	3.91
334.119	3.91
334.486	3.91
334.853	3.92
335.22	3.94
335.587	3.95
335.954	3.95
336.32	3.94
336.687	3.93
337.054	3.92
337.42	3.92
337.787	3.92
338.153	3.93
338.52	3.93
338.886	3.91
339.253	3.91
339.619	3.92
339.986	3.92
340.352	3.92
340.718	3.91
341.084	3.91
341.451	3.91
341.817	3.91
342.183	3.91
342.549	3.9
342.915	3.9
343.281	3.92
343.647	3.92
344.013	3.92
344.379	3.93
344.745	3.94
345.11	3.93
345.476	3.95
345.842	3.96
346.208	3.97
346.573	3.95
346.939	3.95
347.304	3.96
347.67	3.96
348.035	3.95
348.401	3.96
348.766	3.96
349.132	3.97
349.497	3.96
349.862	3.96
350.228	3.95
350.593	3.95
350.958	3.95
351.323	3.95
351.688	3.96
352.053	3.96
352.418	3.95
352.783	3.95
353.148	3.95
353.513	3.96
353.878	3.96
354.243	3.96
354.608	3.96
354.972	3.97
355.337	3.97
355.702	3.97
356.066	3.96
356.431	3.97
356.795	3.97
357.16	3.95
357.524	3.96
357.889	3.96
358.253	3.94
358.618	3.94
358.982	3.94
359.346	3.94
359.71	3.94
360.075	3.94
360.439	3.93
360.803	3.93
361.167	3.93
361.531	3.94
361.895	3.94
362.259	3.93
362.623	3.93
362.987	3.93
363.351	3.93
363.714	3.92
364.078	3.92
364.442	3.92
364.806	3.92
365.169	3.92
365.533	3.92
365.896	3.93
366.26	3.94
366.623	3.93
366.987	3.93
367.35	3.93
367.714	3.93
368.077	3.93
368.44	3.92
368.803	3.92
369.167	3.93
369.53	3.93
369.893	3.92
370.256	3.92
370.619	3.92
370.982	3.94
371.345	3.94
371.708	3.95
372.071	3.96
372.434	3.97
372.797	3.97
373.159	3.97
373.522	3.98
373.885	3.98
374.247	3.99
374.61	3.98
374.973	3.98
375.335	3.97
375.698	3.97
376.06	3.97
376.423	3.97
376.785	3.97
377.147	3.96
377.51	3.97
377.872	3.97
378.234	3.97
378.596	3.97
378.958	3.97
379.321	3.97
379.683	3.97
380.045	3.97
380.407	3.97
380.769	3.96
381.13	3.95
381.492	3.95
381.854	3.95
382.216	3.96
382.578	3.96
382.939	3.95
383.301	3.95
383.663	3.95
384.024	3.95
384.386	3.95
384.747	3.96
385.109	3.96
385.47	3.95
385.832	3.94
386.193	3.94
386.554	3.94
386.916	3.94
387.277	3.93
387.638	3.93
387.999	3.94
388.36	3.93
388.721	3.93
389.082	3.93
389.443	3.93
389.804	3.93
390.165	3.94
390.526	3.93
390.887	3.93
391.248	3.94
391.609	3.93
391.969	3.93
392.33	3.93
392.691	3.93
393.051	3.93
393.412	3.93
393.772	3.93
394.133	3.93
394.493	3.93
394.854	3.92
395.214	3.92
395.574	3.92
395.935	3.92
396.295	3.92
396.655	3.92
397.015	3.92
397.376	3.92
397.736	3.92
398.096	3.93
398.456	3.93
398.816	3.93
399.176	3.92
399.535	3.92
399.895	3.92
400.255	3.92
400.615	3.92
400.975	3.92
401.334	3.92
401.694	3.92
402.054	3.93
402.413	3.92
402.773	3.92
403.132	3.93
403.492	3.92
403.851	3.92
404.211	3.93
404.57	3.93
404.929	3.93
405.288	3.93
405.648	3.93
406.007	3.93
406.366	3.93
406.725	3.93
407.084	3.93
407.443	3.93
407.802	3.94
408.161	3.94
408.52	3.94
408.879	3.94
409.238	3.94
409.596	3.94
409.955	3.95
410.314	3.95
410.673	3.95
411.031	3.96
411.39	3.97
411.748	3.97
412.107	3.98
412.465	3.99
412.824	4.02
413.182	4.04
413.54	4.06
413.899	4.09
414.257	4.13
414.615	4.17
414.974	4.2
415.332	4.23
415.69	4.27
416.048	4.31
416.406	4.35
416.764	4.38
417.122	4.41
417.48	4.44
417.838	4.47
418.195	4.5
418.553	4.52
418.911	4.53
419.269	4.54
419.626	4.54
419.984	4.54
420.342	4.52
420.699	4.51
421.057	4.49
421.414	4.47
421.772	4.46
422.129	4.45
422.486	4.45
422.844	4.45
423.201	4.45
423.558	4.45
423.915	4.45
424.273	4.45
424.63	4.45
424.987	4.45
425.344	4.45
425.701	4.45
426.058	4.45
426.415	4.45
426.772	4.45
427.128	4.44
427.485	4.43
427.842	4.42
428.199	4.41
428.555	4.39
428.912	4.37
429.269	4.34
429.625	4.32
429.982	4.29
430.338	4.26
430.695	4.24
431.051	4.2
431.407	4.18
431.764	4.16
432.12	4.14
432.476	4.13
432.832	4.12
433.189	4.12
433.545	4.12
433.901	4.14
434.257	4.16
434.613	4.19
434.969	4.21
435.325	4.24
435.681	4.28
436.036	4.3
436.392	4.32
436.748	4.34
437.104	4.35
437.459	4.37
437.815	4.38
438.171	4.41
438.526	4.43
438.882	4.46
439.237	4.5
439.593	4.53
439.948	4.56
440.304	4.6
440.659	4.63
441.014	4.65
441.369	4.68
441.725	4.7
442.08	4.71
442.435	4.73
442.79	4.73
443.145	4.74
443.5	4.74
443.855	4.74
444.21	4.74
444.565	4.73
444.92	4.72
445.275	4.71
445.629	4.71
445.984	4.7
446.339	4.69
446.693	4.68
447.048	4.66
447.403	4.65
447.757	4.62
448.112	4.6
448.466	4.58
448.82	4.55
449.175	4.53
449.529	4.51
449.883	4.49
450.238	4.47
450.592	4.46
450.946	4.45
451.3	4.45
451.654	4.46
452.008	4.46
452.362	4.46
452.716	4.46
453.07	4.46
453.424	4.46
453.778	4.45
454.132	4.44
454.486	4.43
454.839	4.41
455.193	4.39
455.547	4.38
455.9	4.35
456.254	4.33
456.607	4.3
456.961	4.28
457.314	4.25
457.668	4.25
458.021	4.24
458.375	4.23
458.728	4.23
459.081	4.24
459.434	4.24
459.787	4.25
460.141	4.27
460.494	4.27
460.847	4.28
461.2	4.28
461.553	4.29
461.906	4.29
462.259	4.29
462.611	4.3
462.964	4.3
463.317	4.31
463.67	4.31
464.022	4.32
464.375	4.33
464.728	4.33
465.08	4.33
465.433	4.33
465.785	4.32
466.138	4.31
466.49	4.29
466.843	4.27
467.195	4.25
467.547	4.23
467.899	4.2
468.252	4.17
468.604	4.15
468.956	4.13
469.308	4.11
469.66	4.11
470.012	4.1
470.364	4.1
470.716	4.11
471.068	4.12
471.42	4.14
471.772	4.16
472.123	4.17
472.475	4.18
472.827	4.19
473.178	4.2
473.53	4.21
473.882	4.23
474.233	4.25
474.585	4.28
474.936	4.34
475.288	4.44
475.639	4.55
475.99	4.69
476.342	4.84
476.693	5.01
477.044	5.18
477.395	5.35
477.746	5.53
478.097	5.7
478.448	5.88
478.8	6.06
479.15	6.22
479.501	6.38
479.852	6.52
480.203	6.66
480.554	6.78
480.905	6.9
481.255	7.02
481.606	7.13
481.957	7.24
482.307	7.33
482.658	7.43
483.009	7.52
483.359	7.6
483.709	7.69
484.06	7.77
484.41	7.85
484.761	7.92
485.111	8
485.461	8.07
485.811	8.13
486.162	8.19
486.512	8.24
486.862	8.28
487.212	8.31
487.562	8.33
487.912	8.34
488.262	8.35
488.612	8.34
488.961	8.32
489.311	8.28
489.661	8.21
490.011	8.12
490.36	8.01
490.71	7.88
491.06	7.74
491.409	7.6
491.759	7.44
492.108	7.29
492.458	7.12
492.807	6.95
493.157	6.78
493.506	6.63
493.855	6.47
494.204	6.32
494.554	6.18
494.903	6.05
495.252	5.93
495.601	5.81
495.95	5.69
496.299	5.58
496.648	5.48
496.997	5.38
497.346	5.29
497.695	5.19
498.043	5.11
498.392	5.02
498.741	4.94
499.09	4.86
499.438	4.78
499.787	4.71
500.135	4.64
500.484	4.58
500.832	4.53
501.181	4.49
501.529	4.46
501.878	4.45
502.226	4.44
502.574	4.44
502.923	4.44
503.271	4.44
503.619	4.44
503.967	4.44
504.315	4.43
504.663	4.43
505.011	4.43
505.359	4.42
505.707	4.42
506.055	4.42
506.403	4.41
506.751	4.42
507.098	4.42
507.446	4.43
507.794	4.43
508.141	4.44
508.489	4.46
508.837	4.48
509.184	4.49
509.531	4.5
509.879	4.51
510.226	4.53
510.574	4.55
510.921	4.56
511.268	4.58
511.616	4.6
511.963	4.62
512.31	4.65
512.657	4.67
513.004	4.69
513.351	4.71
513.698	4.72
514.045	4.73
514.392	4.73
514.739	4.73
515.086	4.73
515.432	4.72
515.779	4.72
516.126	4.72
516.473	4.72
516.819	4.72
517.166	4.72
517.512	4.73
517.859	4.74
518.205	4.76
518.552	4.78
518.898	4.82
519.245	4.86
519.591	4.91
519.937	4.99
520.283	5.08
520.629	5.19
520.976	5.31
521.322	5.43
521.668	5.55
522.014	5.68
522.36	5.81
522.706	5.94
523.052	6.05
523.398	6.16
523.743	6.26
524.089	6.34
524.435	6.41
524.781	6.48
525.126	6.54
525.472	6.6
525.817	6.65
526.163	6.7
526.509	6.75
526.854	6.8
527.199	6.84
527.545	6.89
527.89	6.94
528.235	6.99
528.581	7.04
528.926	7.09
529.271	7.13
529.616	7.16
529.961	7.2
530.306	7.23
530.651	7.25
530.996	7.27
531.341	7.28
531.686	7.29
532.031	7.29
532.376	7.29
532.721	7.29
533.065	7.3
533.41	7.31
533.755	7.3
534.099	7.29
534.444	7.26
534.788	7.23
535.133	7.18
535.477	7.13
535.822	7.08
536.166	7.02
536.51	6.95
536.855	6.87
537.199	6.79
537.543	6.71
537.887	6.63
538.231	6.57
538.576	6.51
538.92	6.45
539.264	6.39
539.608	6.33
539.951	6.27
540.295	6.2
540.639	6.13
540.983	6.07
541.327	6
541.671	5.93
542.014	5.87
542.358	5.81
542.701	5.76
543.045	5.72
543.389	5.7
543.732	5.67
544.075	5.65
544.419	5.63
544.762	5.62
545.105	5.61
545.449	5.6
545.792	5.59
546.135	5.58
546.478	5.57
546.821	5.55
547.165	5.51
547.508	5.47
547.851	5.42
548.194	5.36
548.536	5.3
548.879	5.23
549.222	5.15
549.565	5.08
549.908	5
550.25	4.93
550.593	4.87
550.936	4.82
551.278	4.77
551.621	4.74
551.963	4.71
552.306	4.68
552.648	4.66
552.991	4.64
553.333	4.63
553.675	4.62
554.017	4.61
554.36	4.62
554.702	4.62
555.044	4.63
555.386	4.64
555.728	4.66
556.07	4.66
556.412	4.68
556.754	4.68
557.096	4.69
557.438	4.68
557.78	4.69
558.121	4.69
558.463	4.69
558.805	4.69
559.147	4.68
559.488	4.68
559.83	4.68
560.171	4.68
560.513	4.68
560.854	4.68
561.196	4.68
561.537	4.69
561.878	4.69
562.22	4.69
562.561	4.69
562.902	4.69
563.243	4.69
563.584	4.69
563.925	4.7
564.266	4.7
564.607	4.7
564.948	4.7
565.289	4.71
565.63	4.71
565.971	4.71
566.312	4.72
566.653	4.72
566.993	4.72
567.334	4.72
567.675	4.73
568.015	4.73
568.356	4.74
568.696	4.74
569.037	4.74
569.377	4.74
569.718	4.75
570.058	4.75
570.398	4.75
570.739	4.75
571.079	4.74
571.419	4.75
571.759	4.75
572.099	4.75
572.439	4.75
572.779	4.75
573.119	4.75
573.459	4.75
573.799	4.75
574.139	4.75
574.479	4.75
574.819	4.75
575.158	4.74
575.498	4.74
575.838	4.74
576.177	4.74
576.517	4.73
576.856	4.73
577.196	4.73
577.535	4.74
577.875	4.73
578.214	4.73
578.553	4.73
578.893	4.72
579.232	4.72
579.571	4.72
579.91	4.72
580.25	4.72
580.589	4.72
580.928	4.72
581.267	4.72
581.606	4.71
581.945	4.71
582.283	4.71
582.622	4.71
582.961	4.71
583.3	4.71
583.639	4.71
583.977	4.71
584.316	4.71
584.654	4.72
584.993	4.72
585.332	4.72
585.67	4.72
586.008	4.72
586.347	4.73
586.685	4.73
587.024	4.73
587.362	4.73
587.7	4.73
588.038	4.74
588.376	4.74
588.715	4.74
589.053	4.74
589.391	4.74
589.729	4.75
590.067	4.75
590.404	4.76
590.742	4.76
591.08	4.76
591.418	4.77
591.756	4.77
592.093	4.78
592.431	4.78
592.769	4.79
593.106	4.79
593.444	4.8
593.781	4.8
594.119	4.8
594.456	4.8
594.793	4.8
595.131	4.8
595.468	4.8
595.805	4.8
596.143	4.8
596.48	4.8
596.817	4.8
597.154	4.8
597.491	4.8
597.828	4.81
598.165	4.81
598.502	4.81
598.839	4.82
599.176	4.82
599.512	4.82
599.849	4.82
600.186	4.82
600.523	4.82
600.859	4.82
601.196	4.83
601.532	4.83
601.869	4.83
602.205	4.83
602.542	4.83
602.878	4.83
603.215	4.84
603.551	4.84
603.887	4.84
604.223	4.84
604.56	4.84
604.896	4.84
605.232	4.84
605.568	4.84
605.904	4.84
606.24	4.84
606.576	4.84
606.912	4.83
607.248	4.83
607.583	4.83
607.919	4.83
608.255	4.83
608.591	4.83
608.926	4.83
609.262	4.83
609.597	4.83
609.933	4.83
610.268	4.84
610.604	4.84
610.939	4.83
611.275	4.84
611.61	4.84
611.945	4.83
612.281	4.83
612.616	4.83
612.951	4.82
613.286	4.82
613.621	4.82
613.956	4.82
614.291	4.82
614.626	4.82
614.961	4.81
615.296	4.81
615.631	4.81
615.966	4.81
616.3	4.81
616.635	4.81
616.97	4.81
617.304	4.81
617.639	4.8
617.973	4.8
618.308	4.8
618.642	4.8
618.977	4.8
619.311	4.8
619.646	4.8
619.98	4.8
620.314	4.81
620.648	4.81
620.983	4.81
621.317	4.82
621.651	4.82
621.985	4.82
622.319	4.84
622.653	4.84
622.987	4.84
623.321	4.84
623.655	4.85
623.988	4.85
624.322	4.85
624.656	4.85
624.99	4.85
625.323	4.86
625.657	4.85
625.99	4.86
626.324	4.85
626.657	4.85
626.991	4.86
627.324	4.86
627.658	4.86
627.991	4.86
628.324	4.87
628.657	4.88
628.991	4.88
629.324	4.89
629.657	4.89
629.99	4.89
630.323	4.9
630.656	4.9
630.989	4.9
631.322	4.9
631.655	4.91
631.987	4.91
632.32	4.91
632.653	4.91
632.986	4.91
633.318	4.92
633.651	4.92
633.984	4.92
634.316	4.92
634.649	4.92
634.981	4.92
635.313	4.93
635.646	4.93
635.978	4.93
636.31	4.93
636.643	4.93
636.975	4.94
637.307	4.93
637.639	4.94
637.971	4.94
638.303	4.94
638.635	4.94
638.967	4.93
639.299	4.94
639.631	4.94
639.963	4.95
640.295	4.96
640.626	4.96
640.958	4.96
641.29	4.97
641.621	4.97
641.953	4.97
642.285	4.96
642.616	4.96
642.948	4.96
643.279	4.96
643.61	4.97
643.942	4.96
644.273	4.96
644.604	4.97
644.936	4.97
645.267	4.97
645.598	4.97
645.929	4.97
646.26	4.97
646.591	4.97
646.922	4.97
647.253	4.97
647.584	4.98
647.915	4.98
648.245	4.98
648.576	4.99
648.907	4.98
649.238	4.98
649.568	4.98
649.899	4.97
650.229	4.98
650.56	4.98
650.89	4.98
651.221	4.97
651.551	4.97
651.882	4.97
652.212	4.98
652.542	4.98
652.872	4.98
653.203	4.98
653.533	4.98
653.863	4.98
654.193	4.98
654.523	4.99
654.853	4.99
655.183	4.99
655.513	4.99
655.843	5
656.172	5
656.502	5.01
656.832	5.01
657.162	5
657.491	5.01
657.821	5.01
658.15	5.01
658.48	5.02
658.809	5.02
659.139	5.02
659.468	5.02
659.798	5.03
660.127	5.04
660.456	5.04
660.785	5.04
661.115	5.04
661.444	5.04
661.773	5.05
662.102	5.04
662.431	5.04
662.76	5.05
663.089	5.05
663.418	5.06
663.747	5.07
664.076	5.08
664.404	5.09
664.733	5.09
665.062	5.1
665.39	5.11
665.719	5.1
666.048	5.12
666.376	5.12
666.705	5.13
667.033	5.13
667.362	5.14
667.69	5.13
668.018	5.14
668.347	5.15
668.675	5.16
669.003	5.17
669.331	5.17
669.659	5.18
669.987	5.18
670.315	5.19
670.643	5.2
670.971	5.2
671.299	5.21
671.627	5.2
671.955	5.2
672.283	5.21
672.61	5.22
672.938	5.22
673.266	5.21
673.593	5.21
673.921	5.22
674.249	5.22
674.576	5.22
674.904	5.22
675.231	5.23
675.558	5.23
675.886	5.23
676.213	5.24
676.54	5.23
676.867	5.23
677.195	5.22
677.522	5.21
677.849	5.21
678.176	5.22
678.503	5.22
678.83	5.22
679.157	5.23
679.484	5.23
679.81	5.23
680.137	5.23
680.464	5.24
680.791	5.24
681.117	5.24
681.444	5.25
681.771	5.25
682.097	5.25
