Data from UWBM122617_Reflection_00007.txt Node
Date: Sun May 02 12:17:16 EDT 2021
User: vgr7
Spectrometer: USB2G7710
Scans to average: 10
Trigger mode: 4
Integration Time (sec): 1.000000E-1
Electric dark correction enabled: true
Boxcar width: 10
XAxis mode: Wavelengths
Number of Pixels in Spectrum: 2048
>>>>>Begin Spectral Data<<<<<
177.721	-1020
178.105	-54.55
178.488	-2.87
178.871	-83.54
179.254	173.08
179.636	174.55
180.019	37.5
180.402	145
180.785	-31.45
181.168	-27.36
181.55	-49.25
181.933	-66.46
182.316	-39.42
182.698	-105.63
183.081	-120.49
183.463	-141.43
183.846	-64.29
184.228	-79.66
184.611	-68.62
184.993	-41.49
185.376	-38.57
185.758	-42.71
186.14	-51
186.522	-38.83
186.904	-35.44
187.287	-30.61
187.669	-34.14
188.051	-40.21
188.433	-36.62
188.815	-30.67
189.197	-28.23
189.579	-23.38
189.961	-23.31
190.342	-26.16
190.724	-22.26
191.106	-20.96
191.488	-15.87
191.869	-16.52
192.251	-11.32
192.633	-12.46
193.014	-17.31
193.396	-15.08
193.777	-14.74
194.159	-11.56
194.54	-17.97
194.922	-18.99
195.303	-16.68
195.684	-15.94
196.065	-13.94
196.447	-15.25
196.828	-15.43
197.209	-19.62
197.59	-21.63
197.971	-22.15
198.352	-17.85
198.733	-12.21
199.114	-11.8
199.495	-15.57
199.876	-17.26
200.257	-18.63
200.638	-14.29
201.018	-14.58
201.399	-17.79
201.78	-15.08
202.16	-17.02
202.541	-13.16
202.922	-9.77
203.302	-10.01
203.683	-8.23
204.063	-8.39
204.444	-2.74
204.824	-0.69
205.204	1.38
205.585	4.4
205.965	4.65
206.345	6
206.725	-1.51
207.106	0.93
207.486	4
207.866	10.23
208.246	12.44
208.626	15.35
209.006	17.42
209.386	20.45
209.766	18.8
210.145	18.64
210.525	15.3
210.905	13.47
211.285	12.55
211.664	11.67
212.044	13.14
212.424	14.16
212.803	14.5
213.183	15.95
213.562	14.82
213.942	14.73
214.321	11.74
214.701	9.55
215.08	7.64
215.459	7.95
215.838	4.98
216.218	7.62
216.597	4.81
216.976	1.45
217.355	1.81
217.734	0.5
218.113	2.83
218.492	7.01
218.871	8.44
219.25	9
219.629	12.04
220.008	9.78
220.387	5.97
220.766	0.46
221.144	-3.45
221.523	-3.46
221.902	0.84
222.28	2.44
222.659	5.78
223.037	8.59
223.416	8.93
223.794	8.07
224.173	5.84
224.551	5.93
224.929	5.83
225.308	6.29
225.686	5.63
226.064	3.7
226.442	2.46
226.821	1.6
227.199	0.41
227.577	-0.67
227.955	-0.7
228.333	-1.44
228.711	-0.17
229.089	2.07
229.467	3.08
229.845	2.64
230.222	1.98
230.6	1.6
230.978	1.41
231.356	1.43
231.733	1.05
232.111	1.71
232.488	1.69
232.866	1.96
233.243	1.84
233.621	2.67
233.998	3.42
234.376	3.78
234.753	4.25
235.13	4.99
235.508	5.79
235.885	5.95
236.262	6.2
236.639	6.26
237.016	6.24
237.393	5.57
237.77	5.21
238.147	5.23
238.524	5.57
238.901	5.58
239.278	5.26
239.655	5.19
240.032	4.74
240.409	4.71
240.785	4.69
241.162	4.71
241.539	4.59
241.915	4.44
242.292	4.54
242.668	4.45
243.045	4.44
243.421	4.34
243.798	4.37
244.174	4.43
244.551	4.39
244.927	4.33
245.303	4.33
245.679	4.39
246.056	4.3
246.432	4.25
246.808	4.23
247.184	4.25
247.56	4.28
247.936	4.3
248.312	4.28
248.688	4.36
249.064	4.35
249.44	4.34
249.815	4.36
250.191	4.29
250.567	4.32
250.943	4.31
251.318	4.32
251.694	4.24
252.069	4.17
252.445	4.17
252.82	4.09
253.196	4.12
253.571	4.11
253.947	4.28
254.322	4.32
254.697	4.3
255.073	4.35
255.448	4.31
255.823	4.3
256.198	4.18
256.573	4.09
256.948	4.04
257.323	4.11
257.698	4.07
258.073	4.07
258.448	4.09
258.823	4.03
259.198	3.99
259.573	4.02
259.948	4.02
260.322	3.97
260.697	3.98
261.072	3.97
261.446	3.9
261.821	3.85
262.195	3.81
262.57	3.79
262.944	3.71
263.319	3.67
263.693	3.64
264.067	3.71
264.442	3.7
264.816	3.69
265.19	3.63
265.564	3.65
265.938	3.57
266.313	3.47
266.687	3.43
267.061	3.48
267.435	3.43
267.809	3.4
268.183	3.45
268.556	3.5
268.93	3.49
269.304	3.51
269.678	3.5
270.051	3.48
270.425	3.45
270.799	3.53
271.172	3.53
271.546	3.6
271.919	3.63
272.293	3.6
272.666	3.59
273.04	3.58
273.413	3.49
273.787	3.51
274.16	3.56
274.533	3.57
274.906	3.52
275.279	3.58
275.653	3.6
276.026	3.53
276.399	3.51
276.772	3.5
277.145	3.55
277.518	3.55
277.891	3.58
278.263	3.58
278.636	3.58
279.009	3.61
279.382	3.53
279.755	3.46
280.127	3.52
280.5	3.55
280.872	3.49
281.245	3.64
281.617	3.63
281.99	3.64
282.362	3.64
282.735	3.63
283.107	3.6
283.479	3.63
283.852	3.65
284.224	3.66
284.596	3.62
284.968	3.63
285.34	3.65
285.713	3.71
286.085	3.7
286.457	3.71
286.829	3.71
287.201	3.76
287.572	3.8
287.944	3.79
288.316	3.79
288.688	3.84
289.06	3.81
289.431	3.82
289.803	3.81
290.175	3.84
290.546	3.89
290.918	3.92
291.289	3.92
291.661	3.95
292.032	3.93
292.403	4
292.775	3.98
293.146	3.99
293.517	3.96
293.889	4
294.26	3.98
294.631	3.99
295.002	4.01
295.373	4.05
295.744	4.06
296.115	4.07
296.486	4.12
296.857	4.12
297.228	4.16
297.599	4.17
297.97	4.19
298.34	4.2
298.711	4.2
299.082	4.22
299.452	4.25
299.823	4.33
300.194	4.35
300.564	4.35
300.935	4.35
301.305	4.37
301.676	4.37
302.046	4.39
302.416	4.43
302.787	4.45
303.157	4.47
303.527	4.51
303.897	4.57
304.267	4.56
304.637	4.62
305.008	4.63
305.378	4.69
305.748	4.74
306.117	4.75
306.487	4.79
306.857	4.84
307.227	4.85
307.597	4.85
307.967	4.9
308.336	4.97
308.706	5.04
309.076	5.06
309.445	5.12
309.815	5.16
310.184	5.18
310.554	5.21
310.923	5.2
311.293	5.24
311.662	5.25
312.031	5.31
312.401	5.32
312.77	5.35
313.139	5.4
313.508	5.42
313.877	5.49
314.246	5.49
314.616	5.51
314.985	5.57
315.353	5.57
315.722	5.61
316.091	5.66
316.46	5.7
316.829	5.78
317.198	5.86
317.567	5.96
317.935	5.98
318.304	6.05
318.672	6.13
319.041	6.16
319.41	6.2
319.778	6.26
320.147	6.28
320.515	6.34
320.883	6.37
321.252	6.42
321.62	6.39
321.988	6.48
322.357	6.52
322.725	6.55
323.093	6.64
323.461	6.64
323.829	6.67
324.197	6.7
324.565	6.7
324.933	6.68
325.301	6.69
325.669	6.74
326.037	6.75
326.405	6.75
326.772	6.76
327.14	6.79
327.508	6.8
327.875	6.88
328.243	6.91
328.61	6.92
328.978	6.98
329.346	7.02
329.713	7.03
330.08	7.09
330.448	7.11
330.815	7.14
331.182	7.16
331.55	7.17
331.917	7.21
332.284	7.22
332.651	7.27
333.018	7.27
333.385	7.31
333.752	7.35
334.119	7.37
334.486	7.4
334.853	7.42
335.22	7.43
335.587	7.39
335.954	7.42
336.32	7.42
336.687	7.39
337.054	7.42
337.42	7.44
337.787	7.44
338.153	7.46
338.52	7.49
338.886	7.52
339.253	7.52
339.619	7.51
339.986	7.54
340.352	7.55
340.718	7.59
341.084	7.57
341.451	7.57
341.817	7.58
342.183	7.62
342.549	7.63
342.915	7.64
343.281	7.7
343.647	7.72
344.013	7.75
344.379	7.75
344.745	7.73
345.11	7.74
345.476	7.78
345.842	7.8
346.208	7.77
346.573	7.79
346.939	7.8
347.304	7.81
347.67	7.8
348.035	7.81
348.401	7.82
348.766	7.85
349.132	7.84
349.497	7.84
349.862	7.82
350.228	7.8
350.593	7.81
350.958	7.8
351.323	7.8
351.688	7.81
352.053	7.82
352.418	7.88
352.783	7.84
353.148	7.82
353.513	7.79
353.878	7.78
354.243	7.76
354.608	7.74
354.972	7.73
355.337	7.71
355.702	7.67
356.066	7.66
356.431	7.63
356.795	7.6
357.16	7.56
357.524	7.55
357.889	7.52
358.253	7.48
358.618	7.46
358.982	7.43
359.346	7.39
359.71	7.36
360.075	7.3
360.439	7.29
360.803	7.25
361.167	7.21
361.531	7.19
361.895	7.15
362.259	7.12
362.623	7.1
362.987	7.1
363.351	7.09
363.714	7.05
364.078	7.01
364.442	7
364.806	6.98
365.169	6.96
365.533	6.94
365.896	6.9
366.26	6.86
366.623	6.82
366.987	6.79
367.35	6.75
367.714	6.72
368.077	6.69
368.44	6.66
368.803	6.62
369.167	6.59
369.53	6.57
369.893	6.54
370.256	6.48
370.619	6.42
370.982	6.37
371.345	6.34
371.708	6.32
372.071	6.26
372.434	6.22
372.797	6.15
373.159	6.11
373.522	6.09
373.885	6.07
374.247	6.02
374.61	5.97
374.973	5.93
375.335	5.87
375.698	5.84
376.06	5.79
376.423	5.76
376.785	5.73
377.147	5.67
377.51	5.67
377.872	5.64
378.234	5.6
378.596	5.56
378.958	5.53
379.321	5.5
379.683	5.48
380.045	5.43
380.407	5.41
380.769	5.36
381.13	5.33
381.492	5.28
381.854	5.25
382.216	5.24
382.578	5.21
382.939	5.2
383.301	5.16
383.663	5.13
384.024	5.09
384.386	5.07
384.747	5.06
385.109	5.02
385.47	4.99
385.832	4.97
386.193	4.95
386.554	4.92
386.916	4.89
387.277	4.87
387.638	4.87
387.999	4.85
388.36	4.85
388.721	4.81
389.082	4.79
389.443	4.77
389.804	4.74
390.165	4.72
390.526	4.7
390.887	4.68
391.248	4.67
391.609	4.66
391.969	4.64
392.33	4.61
392.691	4.59
393.051	4.57
393.412	4.56
393.772	4.52
394.133	4.51
394.493	4.49
394.854	4.47
395.214	4.44
395.574	4.4
395.935	4.38
396.295	4.36
396.655	4.34
397.015	4.32
397.376	4.3
397.736	4.28
398.096	4.25
398.456	4.23
398.816	4.21
399.176	4.18
399.535	4.16
399.895	4.14
400.255	4.12
400.615	4.1
400.975	4.09
401.334	4.08
401.694	4.06
402.054	4.04
402.413	4.03
402.773	4.02
403.132	4.02
403.492	4
403.851	4
404.211	4.01
404.57	4.01
404.929	4
405.288	3.99
405.648	3.98
406.007	3.98
406.366	3.97
406.725	3.96
407.084	3.95
407.443	3.95
407.802	3.95
408.161	3.95
408.52	3.94
408.879	3.94
409.238	3.95
409.596	3.94
409.955	3.94
410.314	3.93
410.673	3.91
411.031	3.91
411.39	3.89
411.748	3.89
412.107	3.88
412.465	3.87
412.824	3.87
413.182	3.86
413.54	3.85
413.899	3.85
414.257	3.84
414.615	3.84
414.974	3.83
415.332	3.82
415.69	3.81
416.048	3.8
416.406	3.8
416.764	3.79
417.122	3.79
417.48	3.78
417.838	3.79
418.195	3.79
418.553	3.79
418.911	3.79
419.269	3.79
419.626	3.79
419.984	3.8
420.342	3.79
420.699	3.79
421.057	3.79
421.414	3.79
421.772	3.79
422.129	3.78
422.486	3.78
422.844	3.78
423.201	3.78
423.558	3.78
423.915	3.77
424.273	3.77
424.63	3.76
424.987	3.75
425.344	3.75
425.701	3.74
426.058	3.73
426.415	3.72
426.772	3.71
427.128	3.69
427.485	3.68
427.842	3.67
428.199	3.67
428.555	3.66
428.912	3.65
429.269	3.64
429.625	3.64
429.982	3.64
430.338	3.64
430.695	3.64
431.051	3.63
431.407	3.63
431.764	3.62
432.12	3.62
432.476	3.62
432.832	3.61
433.189	3.61
433.545	3.61
433.901	3.62
434.257	3.63
434.613	3.63
434.969	3.63
435.325	3.64
435.681	3.64
436.036	3.64
436.392	3.65
436.748	3.66
437.104	3.66
437.459	3.66
437.815	3.67
438.171	3.67
438.526	3.68
438.882	3.67
439.237	3.67
439.593	3.68
439.948	3.69
440.304	3.69
440.659	3.7
441.014	3.7
441.369	3.7
441.725	3.7
442.08	3.7
442.435	3.7
442.79	3.71
443.145	3.71
443.5	3.71
443.855	3.71
444.21	3.7
444.565	3.7
444.92	3.7
445.275	3.7
445.629	3.69
445.984	3.69
446.339	3.69
446.693	3.7
447.048	3.68
447.403	3.68
447.757	3.68
448.112	3.67
448.466	3.67
448.82	3.67
449.175	3.67
449.529	3.66
449.883	3.66
450.238	3.64
450.592	3.64
450.946	3.63
451.3	3.63
451.654	3.62
452.008	3.61
452.362	3.6
452.716	3.6
453.07	3.6
453.424	3.58
453.778	3.58
454.132	3.57
454.486	3.58
454.839	3.58
455.193	3.57
455.547	3.58
455.9	3.58
456.254	3.58
456.607	3.6
456.961	3.61
457.314	3.61
457.668	3.62
458.021	3.63
458.375	3.63
458.728	3.64
459.081	3.65
459.434	3.65
459.787	3.66
460.141	3.66
460.494	3.66
460.847	3.66
461.2	3.66
461.553	3.67
461.906	3.68
462.259	3.68
462.611	3.69
462.964	3.69
463.317	3.69
463.67	3.69
464.022	3.69
464.375	3.69
464.728	3.68
465.08	3.68
465.433	3.68
465.785	3.69
466.138	3.68
466.49	3.68
466.843	3.69
467.195	3.69
467.547	3.7
467.899	3.7
468.252	3.7
468.604	3.71
468.956	3.71
469.308	3.71
469.66	3.71
470.012	3.71
470.364	3.72
470.716	3.73
471.068	3.74
471.42	3.73
471.772	3.73
472.123	3.74
472.475	3.75
472.827	3.75
473.178	3.76
473.53	3.76
473.882	3.76
474.233	3.77
474.585	3.78
474.936	3.78
475.288	3.78
475.639	3.79
475.99	3.79
476.342	3.79
476.693	3.8
477.044	3.8
477.395	3.8
477.746	3.8
478.097	3.8
478.448	3.81
478.8	3.88
479.15	3.97
479.501	4.09
479.852	4.23
480.203	4.38
480.554	4.54
480.905	4.7
481.255	4.85
481.606	5.01
481.957	5.16
482.307	5.3
482.658	5.43
483.009	5.55
483.359	5.64
483.709	5.73
484.06	5.81
484.41	5.89
484.761	5.96
485.111	6.03
485.461	6.1
485.811	6.16
486.162	6.19
486.512	6.19
486.862	6.16
487.212	6.11
487.562	6.04
487.912	5.95
488.262	5.86
488.612	5.76
488.961	5.65
489.311	5.53
489.661	5.41
490.011	5.28
490.36	5.16
490.71	5.03
491.06	4.89
491.409	4.76
491.759	4.65
492.108	4.56
492.458	4.49
492.807	4.42
493.157	4.36
493.506	4.29
493.855	4.23
494.204	4.18
494.554	4.12
494.903	4.08
495.252	4.04
495.601	3.99
495.95	3.96
496.299	3.93
496.648	3.9
496.997	3.88
497.346	3.88
497.695	3.89
498.043	3.93
498.392	3.99
498.741	4.05
499.09	4.09
499.438	4.12
499.787	4.15
500.135	4.17
500.484	4.2
500.832	4.23
501.181	4.26
501.529	4.29
501.878	4.31
502.226	4.34
502.574	4.37
502.923	4.4
503.271	4.45
503.619	4.49
503.967	4.54
504.315	4.59
504.663	4.63
505.011	4.68
505.359	4.74
505.707	4.8
506.055	4.85
506.403	4.92
506.751	4.98
507.098	5.05
507.446	5.11
507.794	5.17
508.141	5.23
508.489	5.29
508.837	5.36
509.184	5.43
509.531	5.5
509.879	5.58
510.226	5.64
510.574	5.72
510.921	5.78
511.268	5.85
511.616	5.93
511.963	6.02
512.31	6.1
512.657	6.2
513.004	6.29
513.351	6.38
513.698	6.49
514.045	6.6
514.392	6.71
514.739	6.83
515.086	6.96
515.432	7.08
515.779	7.21
516.126	7.32
516.473	7.44
516.819	7.55
517.166	7.66
517.512	7.78
517.859	7.89
518.205	8
518.552	8.11
518.898	8.22
519.245	8.33
519.591	8.43
519.937	8.54
520.283	8.66
520.629	8.79
520.976	8.92
521.322	9.06
521.668	9.21
522.014	9.35
522.36	9.49
522.706	9.66
523.052	9.87
523.398	10.14
523.743	10.48
524.089	10.87
524.435	11.29
524.781	11.71
525.126	12.14
525.472	12.56
525.817	12.97
526.163	13.36
526.509	13.73
526.854	14.05
527.199	14.32
527.545	14.55
527.89	14.75
528.235	14.94
528.581	15.13
528.926	15.32
529.271	15.51
529.616	15.7
529.961	15.88
530.306	16.05
530.651	16.17
530.996	16.22
531.341	16.23
531.686	16.2
532.031	16.11
532.376	15.98
532.721	15.81
533.065	15.63
533.41	15.49
533.755	15.37
534.099	15.3
534.444	15.32
534.788	15.36
535.133	15.45
535.477	15.55
535.822	15.66
536.166	15.79
536.51	15.96
536.855	16.16
537.199	16.37
537.543	16.6
537.887	16.88
538.231	17.17
538.576	17.48
538.92	17.81
539.264	18.16
539.608	18.53
539.951	18.87
540.295	19.22
540.639	19.48
540.983	19.71
541.327	19.9
541.671	20.05
542.014	20.26
542.358	20.46
542.701	20.67
543.045	20.88
543.389	21.08
543.732	21.26
544.075	21.45
544.419	21.63
544.762	21.81
545.105	21.95
545.449	22.08
545.792	22.19
546.135	22.32
546.478	22.45
546.821	22.61
547.165	22.85
547.508	23.12
547.851	23.43
548.194	23.81
548.536	24.2
548.879	24.59
549.222	24.87
549.565	25.15
549.908	25.41
550.25	25.69
550.593	25.97
550.936	26.26
551.278	26.55
551.621	26.84
551.963	27.11
552.306	27.39
552.648	27.67
552.991	27.92
553.333	28.17
553.675	28.44
554.017	28.7
554.36	28.95
554.702	29.2
555.044	29.44
555.386	29.69
555.728	29.93
556.07	30.19
556.412	30.44
556.754	30.69
557.096	30.95
557.438	31.2
557.78	31.46
558.121	31.71
558.463	31.95
558.805	32.2
559.147	32.43
559.488	32.65
559.83	32.9
560.171	33.17
560.513	33.42
560.854	33.66
561.196	33.9
561.537	34.14
561.878	34.37
562.22	34.6
562.561	34.85
562.902	35.09
563.243	35.31
563.584	35.53
563.925	35.74
564.266	35.94
564.607	36.16
564.948	36.35
565.289	36.54
565.63	36.74
565.971	36.94
566.312	37.15
566.653	37.35
566.993	37.53
567.334	37.71
567.675	37.88
568.015	38.06
568.356	38.25
568.696	38.43
569.037	38.61
569.377	38.78
569.718	38.96
570.058	39.13
570.398	39.29
570.739	39.48
571.079	39.65
571.419	39.79
571.759	39.95
572.099	40.1
572.439	40.24
572.779	40.38
573.119	40.52
573.459	40.65
573.799	40.78
574.139	40.92
574.479	41.03
574.819	41.15
575.158	41.26
575.498	41.36
575.838	41.45
576.177	41.55
576.517	41.67
576.856	41.77
577.196	41.85
577.535	41.97
577.875	42.05
578.214	42.16
578.553	42.28
578.893	42.37
579.232	42.48
579.571	42.58
579.91	42.68
580.25	42.77
580.589	42.86
580.928	42.95
581.267	43.05
581.606	43.14
581.945	43.24
582.283	43.36
582.622	43.48
582.961	43.61
583.3	43.73
583.639	43.82
583.977	43.91
584.316	44.03
584.654	44.13
584.993	44.22
585.332	44.3
585.67	44.38
586.008	44.49
586.347	44.58
586.685	44.68
587.024	44.77
587.362	44.87
587.7	44.97
588.038	45.08
588.376	45.16
588.715	45.26
589.053	45.34
589.391	45.45
589.729	45.53
590.067	45.64
590.404	45.72
590.742	45.83
591.08	45.91
591.418	46
591.756	46.07
592.093	46.16
592.431	46.29
592.769	46.39
593.106	46.46
593.444	46.55
593.781	46.62
594.119	46.7
594.456	46.78
594.793	46.85
595.131	46.9
595.468	46.97
595.805	47.03
596.143	47.08
596.48	47.11
596.817	47.16
597.154	47.17
597.491	47.22
597.828	47.26
598.165	47.32
598.502	47.37
598.839	47.45
599.176	47.5
599.512	47.53
599.849	47.57
600.186	47.66
600.523	47.71
600.859	47.79
601.196	47.85
601.532	47.91
601.869	47.99
602.205	48.05
602.542	48.13
602.878	48.19
603.215	48.27
603.551	48.32
603.887	48.38
604.223	48.46
604.56	48.51
604.896	48.55
605.232	48.6
605.568	48.64
605.904	48.67
606.24	48.74
606.576	48.79
606.912	48.84
607.248	48.86
607.583	48.92
607.919	48.96
608.255	49
608.591	49.03
608.926	49.06
609.262	49.11
609.597	49.12
609.933	49.16
610.268	49.18
610.604	49.22
610.939	49.25
611.275	49.27
611.61	49.3
611.945	49.34
612.281	49.38
612.616	49.41
612.951	49.45
613.286	49.5
613.621	49.54
613.956	49.57
614.291	49.61
614.626	49.63
614.961	49.65
615.296	49.7
615.631	49.74
615.966	49.76
616.3	49.77
616.635	49.81
616.97	49.83
617.304	49.86
617.639	49.91
617.973	49.94
618.308	49.98
618.642	50.01
618.977	50.04
619.311	50.06
619.646	50.1
619.98	50.12
620.314	50.11
620.648	50.13
620.983	50.14
621.317	50.18
621.651	50.2
621.985	50.21
622.319	50.24
622.653	50.26
622.987	50.29
623.321	50.32
623.655	50.34
623.988	50.38
624.322	50.41
624.656	50.44
624.99	50.44
625.323	50.42
625.657	50.47
625.99	50.52
626.324	50.54
626.657	50.57
626.991	50.6
627.324	50.66
627.658	50.71
627.991	50.74
628.324	50.76
628.657	50.78
628.991	50.83
629.324	50.86
629.657	50.9
629.99	50.93
630.323	50.97
630.656	50.99
630.989	51.03
631.322	51.05
631.655	51.05
631.987	51.08
632.32	51.15
632.653	51.15
632.986	51.13
633.318	51.14
633.651	51.19
633.984	51.22
634.316	51.22
634.649	51.24
634.981	51.26
635.313	51.3
635.646	51.33
635.978	51.35
636.31	51.37
636.643	51.38
636.975	51.4
637.307	51.42
637.639	51.44
637.971	51.43
638.303	51.46
638.635	51.49
638.967	51.53
639.299	51.53
639.631	51.56
639.963	51.63
640.295	51.7
640.626	51.67
640.958	51.72
641.29	51.73
641.621	51.72
641.953	51.76
642.285	51.82
642.616	51.82
642.948	51.82
643.279	51.8
643.61	51.82
643.942	51.84
644.273	51.87
644.604	51.89
644.936	51.94
645.267	51.97
645.598	52
645.929	52.05
646.26	52.06
646.591	52.09
646.922	52.09
647.253	52.08
647.584	52.13
647.915	52.12
648.245	52.17
648.576	52.2
648.907	52.21
649.238	52.18
649.568	52.2
649.899	52.23
650.229	52.33
650.56	52.39
650.89	52.42
651.221	52.47
651.551	52.51
651.882	52.55
652.212	52.56
652.542	52.58
652.872	52.58
653.203	52.6
653.533	52.59
653.863	52.6
654.193	52.64
654.523	52.64
654.853	52.64
655.183	52.62
655.513	52.69
655.843	52.73
656.172	52.74
656.502	52.76
656.832	52.77
657.162	52.77
657.491	52.75
657.821	52.73
658.15	52.7
658.48	52.72
658.809	52.71
659.139	52.75
659.468	52.76
659.798	52.77
660.127	52.8
660.456	52.8
660.785	52.81
661.115	52.84
661.444	52.86
661.773	52.87
662.102	52.91
662.431	52.86
662.76	52.88
663.089	52.93
663.418	52.93
663.747	52.92
664.076	52.94
664.404	52.96
664.733	52.99
665.062	53.02
665.39	53.01
665.719	53.01
666.048	53
666.376	53.03
666.705	53.06
667.033	53.09
667.362	53.17
667.69	53.19
668.018	53.19
668.347	53.2
668.675	53.22
669.003	53.19
669.331	53.21
669.659	53.22
669.987	53.21
