Data from UWBM42201_Reflection_00009.txt Node
Date: Sun May 02 12:49:09 EDT 2021
User: vgr7
Spectrometer: USB2G7710
Scans to average: 10
Trigger mode: 4
Integration Time (sec): 1.000000E-1
Electric dark correction enabled: true
Boxcar width: 20
XAxis mode: Wavelengths
Number of Pixels in Spectrum: 2048
>>>>>Begin Spectral Data<<<<<
177.721	100.02
178.105	100.32
178.488	100.1
178.871	99.29
179.254	99.38
179.636	96.12
180.019	94.57
180.402	92.7
180.785	92.12
181.168	90.04
181.55	87.06
181.933	113.1
182.316	113.92
182.698	116.57
183.081	118.12
183.463	118.75
183.846	122.17
184.228	123.69
184.611	124.77
184.993	127.77
185.376	130.15
185.758	-109.52
186.14	-48.56
186.522	-13.38
186.904	-3.37
187.287	9.31
187.669	10.68
188.051	12.55
188.433	16.91
188.815	16.21
189.197	16.49
189.579	18.21
189.961	18.61
190.342	15.45
190.724	15.61
191.106	14.49
191.488	15.38
191.869	9.83
192.251	10.26
192.633	7.05
193.014	4.9
193.396	4.08
193.777	10.1
194.159	9.44
194.54	8.43
194.922	6.97
195.303	11.39
195.684	12.96
196.065	13.03
196.447	10.47
196.828	10.29
197.209	12.02
197.59	2.19
197.971	1.59
198.352	2.93
198.733	5.79
199.114	3.92
199.495	5.25
199.876	5.72
200.257	4.56
200.638	4.42
201.018	-1.45
201.399	-1.99
201.78	-2.85
202.16	-2.59
202.541	-0.23
202.922	-1.1
203.302	-5.41
203.683	-4.76
204.063	-5.71
204.444	-5.84
204.824	-5.11
205.204	-3.09
205.585	5.17
205.965	5.02
206.345	7.32
206.725	2.92
207.106	3.96
207.486	6.05
207.866	6.3
208.246	7.38
208.626	9.38
209.006	13.65
209.386	8.69
209.766	9.32
210.145	8.18
210.525	7.82
210.905	7.52
211.285	7.48
211.664	7.62
212.044	9.14
212.424	8.92
212.803	3.78
213.183	6.93
213.562	7.76
213.942	7.44
214.321	3.87
214.701	4.38
215.08	6.07
215.459	6.86
215.838	6.5
216.218	7.08
216.597	5.81
216.976	1.32
217.355	1.79
217.734	1.21
218.113	0.83
218.492	2.73
218.871	5.28
219.25	4.88
219.629	4.26
220.008	4.39
220.387	6.18
220.766	6.04
221.144	5.23
221.523	6.94
221.902	7.46
222.28	8.52
222.659	9.43
223.037	8.5
223.416	8.4
223.794	8.74
224.173	8.04
224.551	8.1
224.929	8.56
225.308	9.15
225.686	8.99
226.064	8.88
226.442	8.86
226.821	8.36
227.199	7.48
227.577	6.53
227.955	6
228.333	5.87
228.711	5.47
229.089	5.82
229.467	5.44
229.845	6.12
230.222	5.92
230.6	6.12
230.978	5.85
231.356	5.33
231.733	5.39
232.111	5.46
232.488	5.47
232.866	5.25
233.243	4.71
233.621	4.93
233.998	4.54
234.376	4.51
234.753	4.66
235.13	4.7
235.508	5.19
235.885	5.09
236.262	5.17
236.639	5.34
237.016	5.27
237.393	5.09
237.77	4.86
238.147	4.73
238.524	4.75
238.901	4.85
239.278	4.92
239.655	4.91
240.032	4.85
240.409	4.87
240.785	4.83
241.162	4.92
241.539	4.91
241.915	4.92
242.292	4.9
242.668	4.9
243.045	4.9
243.421	4.79
243.798	4.76
244.174	4.79
244.551	4.69
244.927	4.54
245.303	4.5
245.679	4.51
246.056	4.48
246.432	4.49
246.808	4.31
247.184	4.27
247.56	4.26
247.936	4.25
248.312	4.26
248.688	4.35
249.064	4.32
249.44	4.29
249.815	4.27
250.191	4.21
250.567	4.21
250.943	4.29
251.318	4.3
251.694	4.23
252.069	4.15
252.445	4.14
252.82	4.24
253.196	4.25
253.571	4.21
253.947	4.27
254.322	4.23
254.697	4.34
255.073	4.33
255.448	4.31
255.823	4.26
256.198	4.2
256.573	4
256.948	3.99
257.323	4
257.698	3.94
258.073	3.92
258.448	3.8
258.823	3.78
259.198	3.78
259.573	3.77
259.948	3.82
260.322	3.8
260.697	3.8
261.072	3.79
261.446	3.75
261.821	3.72
262.195	3.68
262.57	3.65
262.944	3.64
263.319	3.63
263.693	3.65
264.067	3.65
264.442	3.73
264.816	3.71
265.19	3.7
265.564	3.76
265.938	3.72
266.313	3.75
266.687	3.71
267.061	3.72
267.435	3.7
267.809	3.69
268.183	3.67
268.556	3.68
268.93	3.68
269.304	3.67
269.678	3.63
270.051	3.61
270.425	3.6
270.799	3.61
271.172	3.62
271.546	3.63
271.919	3.65
272.293	3.63
272.666	3.62
273.04	3.63
273.413	3.59
273.787	3.57
274.16	3.57
274.533	3.6
274.906	3.58
275.279	3.58
275.653	3.57
276.026	3.56
276.399	3.52
276.772	3.52
277.145	3.54
277.518	3.55
277.891	3.59
278.263	3.6
278.636	3.59
279.009	3.59
279.382	3.58
279.755	3.53
280.127	3.57
280.5	3.56
280.872	3.54
281.245	3.65
281.617	3.66
281.99	3.68
282.362	3.7
282.735	3.7
283.107	3.71
283.479	3.71
283.852	3.73
284.224	3.76
284.596	3.73
284.968	3.62
285.34	3.61
285.713	3.6
286.085	3.53
286.457	3.54
286.829	3.52
287.201	3.53
287.572	3.58
287.944	3.6
288.316	3.63
288.688	3.66
289.06	3.66
289.431	3.68
289.803	3.68
290.175	3.7
290.546	3.73
290.918	3.75
291.289	3.72
291.661	3.75
292.032	3.72
292.403	3.75
292.775	3.84
293.146	3.84
293.517	3.87
293.889	3.95
294.26	3.96
294.631	3.99
295.002	4.04
295.373	4.07
295.744	4.09
296.115	4.11
296.486	4.07
296.857	4.09
297.228	4.1
297.599	4.11
297.97	4.12
298.34	4.14
298.711	4.11
299.082	4.11
299.452	4.16
299.823	4.21
300.194	4.23
300.564	4.25
300.935	4.28
301.305	4.27
301.676	4.26
302.046	4.29
302.416	4.31
302.787	4.32
303.157	4.29
303.527	4.33
303.897	4.36
304.267	4.39
304.637	4.44
305.008	4.47
305.378	4.51
305.748	4.53
306.117	4.62
306.487	4.7
306.857	4.78
307.227	4.81
307.597	4.83
307.967	4.85
308.336	4.87
308.706	4.92
309.076	4.95
309.445	4.95
309.815	4.87
310.184	4.89
310.554	4.86
310.923	4.92
311.293	4.94
311.662	4.97
312.031	4.97
312.401	5
312.77	5
313.139	5.01
313.508	5.07
313.877	5.04
314.246	5.06
314.616	5.05
314.985	5.04
315.353	5.08
315.722	5.1
316.091	5.13
316.46	5.19
316.829	5.27
317.198	5.32
317.567	5.49
317.935	5.53
318.304	5.6
318.672	5.67
319.041	5.7
319.41	5.75
319.778	5.8
320.147	5.86
320.515	5.9
320.883	5.92
321.252	5.89
321.62	5.96
321.988	6.01
322.357	6.05
322.725	6.14
323.093	6.19
323.461	6.22
323.829	6.27
324.197	6.29
324.565	6.31
324.933	6.34
325.301	6.36
325.669	6.39
326.037	6.42
326.405	6.39
326.772	6.4
327.14	6.43
327.508	6.43
327.875	6.45
328.243	6.48
328.61	6.48
328.978	6.51
329.346	6.55
329.713	6.55
330.08	6.57
330.448	6.58
330.815	6.58
331.182	6.61
331.55	6.6
331.917	6.62
332.284	6.63
332.651	6.67
333.018	6.68
333.385	6.71
333.752	6.74
334.119	6.78
334.486	6.81
334.853	6.82
335.22	6.84
335.587	6.84
335.954	6.87
336.32	6.91
336.687	6.92
337.054	6.93
337.42	6.95
337.787	6.96
338.153	7
338.52	7.04
338.886	7.08
339.253	7.09
339.619	7.11
339.986	7.09
340.352	7.1
340.718	7.13
341.084	7.13
341.451	7.15
341.817	7.16
342.183	7.16
342.549	7.21
342.915	7.22
343.281	7.26
343.647	7.28
344.013	7.32
344.379	7.33
344.745	7.35
345.11	7.36
345.476	7.39
345.842	7.42
346.208	7.4
346.573	7.4
346.939	7.43
347.304	7.44
347.67	7.44
348.035	7.45
348.401	7.45
348.766	7.48
349.132	7.49
349.497	7.51
349.862	7.51
350.228	7.54
350.593	7.55
350.958	7.55
351.323	7.54
351.688	7.56
352.053	7.55
352.418	7.56
352.783	7.56
353.148	7.55
353.513	7.54
353.878	7.55
354.243	7.54
354.608	7.54
354.972	7.55
355.337	7.55
355.702	7.54
356.066	7.54
356.431	7.53
356.795	7.52
357.16	7.51
357.524	7.49
357.889	7.48
358.253	7.47
358.618	7.47
358.982	7.47
359.346	7.47
359.71	7.47
360.075	7.46
360.439	7.45
360.803	7.42
361.167	7.41
361.531	7.42
361.895	7.41
362.259	7.4
362.623	7.38
362.987	7.36
363.351	7.36
363.714	7.34
364.078	7.32
364.442	7.31
364.806	7.3
365.169	7.26
365.533	7.24
365.896	7.21
366.26	7.2
366.623	7.16
366.987	7.14
367.35	7.13
367.714	7.11
368.077	7.09
368.44	7.07
368.803	7.05
369.167	7.01
369.53	6.99
369.893	6.97
370.256	6.94
370.619	6.92
370.982	6.89
371.345	6.85
371.708	6.83
372.071	6.79
372.434	6.77
372.797	6.75
373.159	6.74
373.522	6.7
373.885	6.67
374.247	6.62
374.61	6.58
374.973	6.55
375.335	6.51
375.698	6.48
376.06	6.44
376.423	6.4
376.785	6.37
377.147	6.33
377.51	6.3
377.872	6.27
378.234	6.23
378.596	6.22
378.958	6.19
379.321	6.16
379.683	6.13
380.045	6.09
380.407	6.06
380.769	6.02
381.13	5.99
381.492	5.97
381.854	5.94
382.216	5.91
382.578	5.87
382.939	5.85
383.301	5.82
383.663	5.8
384.024	5.77
384.386	5.74
384.747	5.71
385.109	5.67
385.47	5.64
385.832	5.62
386.193	5.58
386.554	5.54
386.916	5.52
387.277	5.49
387.638	5.48
387.999	5.45
388.36	5.43
388.721	5.41
389.082	5.38
389.443	5.36
389.804	5.33
390.165	5.31
390.526	5.29
390.887	5.27
391.248	5.24
391.609	5.22
391.969	5.2
392.33	5.18
392.691	5.15
393.051	5.13
393.412	5.09
393.772	5.08
394.133	5.05
394.493	5.02
394.854	5.01
395.214	4.97
395.574	4.95
395.935	4.92
396.295	4.89
396.655	4.87
397.015	4.84
397.376	4.81
397.736	4.79
398.096	4.76
398.456	4.73
398.816	4.72
399.176	4.69
399.535	4.67
399.895	4.64
400.255	4.63
400.615	4.6
400.975	4.59
401.334	4.57
401.694	4.54
402.054	4.52
402.413	4.48
402.773	4.46
403.132	4.45
403.492	4.43
403.851	4.41
404.211	4.4
404.57	4.4
404.929	4.38
405.288	4.37
405.648	4.36
406.007	4.35
406.366	4.34
406.725	4.34
407.084	4.32
407.443	4.31
407.802	4.29
408.161	4.27
408.52	4.26
408.879	4.25
409.238	4.24
409.596	4.22
409.955	4.23
410.314	4.22
410.673	4.2
411.031	4.2
411.39	4.19
411.748	4.19
412.107	4.19
412.465	4.19
412.824	4.19
413.182	4.2
413.54	4.2
413.899	4.21
414.257	4.23
414.615	4.25
414.974	4.27
415.332	4.3
415.69	4.32
416.048	4.34
416.406	4.37
416.764	4.39
417.122	4.41
417.48	4.43
417.838	4.44
418.195	4.46
418.553	4.47
418.911	4.47
419.269	4.46
419.626	4.45
419.984	4.43
420.342	4.41
420.699	4.38
421.057	4.36
421.414	4.34
421.772	4.32
422.129	4.31
422.486	4.3
422.844	4.29
423.201	4.28
423.558	4.27
423.915	4.26
424.273	4.26
424.63	4.25
424.987	4.24
425.344	4.24
425.701	4.23
426.058	4.22
426.415	4.21
426.772	4.2
427.128	4.19
427.485	4.18
427.842	4.17
428.199	4.15
428.555	4.13
428.912	4.11
429.269	4.08
429.625	4.06
429.982	4.03
430.338	4
430.695	3.97
431.051	3.94
431.407	3.91
431.764	3.89
432.12	3.87
432.476	3.86
432.832	3.84
433.189	3.85
433.545	3.84
433.901	3.85
434.257	3.87
434.613	3.89
434.969	3.91
435.325	3.93
435.681	3.97
436.036	3.98
436.392	4
436.748	4
437.104	4
437.459	4.02
437.815	4.03
438.171	4.05
438.526	4.07
438.882	4.1
439.237	4.12
439.593	4.16
439.948	4.18
440.304	4.21
440.659	4.23
441.014	4.25
441.369	4.27
441.725	4.28
442.08	4.3
442.435	4.3
442.79	4.3
443.145	4.3
443.5	4.3
443.855	4.3
444.21	4.3
444.565	4.29
444.92	4.28
445.275	4.27
445.629	4.26
445.984	4.25
446.339	4.24
446.693	4.24
447.048	4.22
447.403	4.2
447.757	4.18
448.112	4.16
448.466	4.14
448.82	4.13
449.175	4.11
449.529	4.09
449.883	4.07
450.238	4.05
450.592	4.04
450.946	4.03
451.3	4.03
451.654	4.04
452.008	4.03
452.362	4.03
452.716	4.03
453.07	4.02
453.424	4.01
453.778	4.01
454.132	3.99
454.486	3.98
454.839	3.96
455.193	3.94
455.547	3.93
455.9	3.89
456.254	3.87
456.607	3.84
456.961	3.82
457.314	3.8
457.668	3.79
458.021	3.79
458.375	3.78
458.728	3.79
459.081	3.79
459.434	3.8
459.787	3.81
460.141	3.82
460.494	3.82
460.847	3.83
461.2	3.83
461.553	3.85
461.906	3.85
462.259	3.86
462.611	3.86
462.964	3.87
463.317	3.88
463.67	3.88
464.022	3.88
464.375	3.89
464.728	3.89
465.08	3.9
465.433	3.9
465.785	3.9
466.138	3.9
466.49	3.89
466.843	3.88
467.195	3.88
467.547	3.86
467.899	3.85
468.252	3.83
468.604	3.82
468.956	3.8
469.308	3.8
469.66	3.8
470.012	3.8
470.364	3.81
470.716	3.82
471.068	3.84
471.42	3.87
471.772	3.89
472.123	3.91
472.475	3.93
472.827	3.94
473.178	3.95
473.53	3.96
473.882	3.98
474.233	4
474.585	4.04
474.936	4.1
475.288	4.18
475.639	4.29
475.99	4.42
476.342	4.56
476.693	4.72
477.044	4.87
477.395	5.03
477.746	5.19
478.097	5.35
478.448	5.52
478.8	5.68
479.15	5.83
479.501	5.96
479.852	6.09
480.203	6.2
480.554	6.31
480.905	6.42
481.255	6.52
481.606	6.62
481.957	6.7
482.307	6.78
482.658	6.87
483.009	6.94
483.359	7.02
483.709	7.09
484.06	7.16
484.41	7.23
484.761	7.29
485.111	7.35
485.461	7.41
485.811	7.47
486.162	7.51
486.512	7.56
486.862	7.59
487.212	7.61
487.562	7.64
487.912	7.64
488.262	7.65
488.612	7.64
488.961	7.62
489.311	7.59
489.661	7.53
490.011	7.45
490.36	7.35
490.71	7.23
491.06	7.11
491.409	6.98
491.759	6.84
492.108	6.7
492.458	6.56
492.807	6.41
493.157	6.26
493.506	6.12
493.855	5.98
494.204	5.86
494.554	5.74
494.903	5.64
495.252	5.54
495.601	5.44
495.95	5.34
496.299	5.27
496.648	5.19
496.997	5.12
497.346	5.05
497.695	4.99
498.043	4.94
498.392	4.88
498.741	4.83
499.09	4.78
499.438	4.74
499.787	4.71
500.135	4.67
500.484	4.65
500.832	4.65
501.181	4.64
501.529	4.65
501.878	4.68
502.226	4.71
502.574	4.75
502.923	4.79
503.271	4.84
503.619	4.9
503.967	4.95
504.315	5.01
504.663	5.07
505.011	5.12
505.359	5.18
505.707	5.24
506.055	5.31
506.403	5.39
506.751	5.47
507.098	5.55
507.446	5.63
507.794	5.72
508.141	5.83
508.489	5.93
508.837	6.05
509.184	6.16
509.531	6.28
509.879	6.4
510.226	6.54
510.574	6.67
510.921	6.82
511.268	6.97
511.616	7.12
511.963	7.29
512.31	7.45
512.657	7.63
513.004	7.8
513.351	7.96
513.698	8.12
514.045	8.27
514.392	8.43
514.739	8.58
515.086	8.72
515.432	8.88
515.779	9.03
516.126	9.2
516.473	9.38
516.819	9.58
517.166	9.79
517.512	10.01
517.859	10.24
518.205	10.49
518.552	10.77
518.898	11.07
519.245	11.42
519.591	11.82
519.937	12.29
520.283	12.83
520.629	13.42
520.976	14.04
521.322	14.67
521.668	15.32
522.014	15.96
522.36	16.61
522.706	17.25
523.052	17.88
523.398	18.48
523.743	19.04
524.089	19.56
524.435	20.05
524.781	20.54
525.126	21.02
525.472	21.5
525.817	21.97
526.163	22.43
526.509	22.88
526.854	23.32
527.199	23.76
527.545	24.21
527.89	24.66
528.235	25.1
528.581	25.52
528.926	25.92
529.271	26.3
529.616	26.65
529.961	26.96
530.306	27.25
530.651	27.54
530.996	27.81
531.341	28.06
531.686	28.29
532.031	28.51
532.376	28.75
532.721	29.01
533.065	29.29
533.41	29.58
533.755	29.84
534.099	30.05
534.444	30.24
534.788	30.4
535.133	30.55
535.477	30.67
535.822	30.76
536.166	30.81
536.51	30.82
536.855	30.77
537.199	30.69
537.543	30.62
537.887	30.56
538.231	30.54
538.576	30.52
538.92	30.48
539.264	30.44
539.608	30.37
539.951	30.29
540.295	30.2
540.639	30.1
540.983	29.98
541.327	29.87
541.671	29.75
542.014	29.65
542.358	29.56
542.701	29.56
543.045	29.58
543.389	29.64
543.732	29.7
544.075	29.79
544.419	29.89
544.762	29.98
545.105	30.1
545.449	30.23
545.792	30.37
546.135	30.5
546.478	30.6
546.821	30.65
547.165	30.64
547.508	30.58
547.851	30.49
548.194	30.37
548.536	30.2
548.879	30
549.222	29.77
549.565	29.55
549.908	29.33
550.25	29.14
550.593	28.99
550.936	28.9
551.278	28.87
551.621	28.87
551.963	28.89
552.306	28.92
552.648	28.98
552.991	29.06
553.333	29.16
553.675	29.3
554.017	29.46
554.36	29.64
554.702	29.85
555.044	30.09
555.386	30.37
555.728	30.62
556.07	30.86
556.412	31.08
556.754	31.23
557.096	31.37
557.438	31.53
557.78	31.67
558.121	31.83
558.463	31.98
558.805	32.13
559.147	32.28
559.488	32.43
559.83	32.58
560.171	32.74
560.513	32.88
560.854	33.02
561.196	33.15
561.537	33.3
561.878	33.43
562.22	33.56
562.561	33.69
562.902	33.83
563.243	33.96
563.584	34.09
563.925	34.22
564.266	34.35
564.607	34.48
564.948	34.61
565.289	34.74
565.63	34.87
565.971	34.99
566.312	35.11
566.653	35.22
566.993	35.33
567.334	35.44
567.675	35.55
568.015	35.66
568.356	35.77
568.696	35.87
569.037	35.97
569.377	36.05
569.718	36.15
570.058	36.23
570.398	36.31
570.739	36.4
571.079	36.48
571.419	36.54
571.759	36.62
572.099	36.69
572.439	36.75
572.779	36.82
573.119	36.89
573.459	36.95
573.799	37.01
574.139	37.07
574.479	37.14
574.819	37.19
575.158	37.25
575.498	37.31
575.838	37.36
576.177	37.42
576.517	37.48
576.856	37.54
577.196	37.59
577.535	37.65
577.875	37.69
578.214	37.74
578.553	37.79
578.893	37.83
579.232	37.87
579.571	37.91
579.91	37.96
580.25	38.01
580.589	38.06
580.928	38.11
581.267	38.16
581.606	38.21
581.945	38.26
582.283	38.3
582.622	38.35
582.961	38.4
583.3	38.47
583.639	38.52
583.977	38.58
584.316	38.65
584.654	38.71
584.993	38.76
585.332	38.82
585.67	38.87
586.008	38.92
586.347	38.99
586.685	39.04
587.024	39.1
587.362	39.17
587.7	39.23
588.038	39.29
588.376	39.35
588.715	39.42
589.053	39.5
589.391	39.56
589.729	39.63
590.067	39.69
590.404	39.75
590.742	39.81
591.08	39.87
591.418	39.93
591.756	39.98
592.093	40.03
592.431	40.09
592.769	40.13
593.106	40.17
593.444	40.22
593.781	40.26
594.119	40.29
594.456	40.34
594.793	40.39
595.131	40.43
595.468	40.48
595.805	40.52
596.143	40.58
596.48	40.64
596.817	40.7
597.154	40.75
597.491	40.81
597.828	40.86
598.165	40.92
598.502	40.96
598.839	41.01
599.176	41.05
599.512	41.09
599.849	41.13
600.186	41.17
600.523	41.21
600.859	41.25
601.196	41.27
601.532	41.31
601.869	41.35
602.205	41.38
602.542	41.43
602.878	41.46
603.215	41.49
603.551	41.52
603.887	41.54
604.223	41.57
604.56	41.6
604.896	41.63
605.232	41.66
605.568	41.69
605.904	41.71
606.24	41.73
606.576	41.76
606.912	41.79
607.248	41.81
607.583	41.84
607.919	41.87
608.255	41.9
608.591	41.91
608.926	41.94
609.262	41.96
609.597	41.97
609.933	41.99
610.268	42.02
610.604	42.03
610.939	42.05
611.275	42.06
611.61	42.07
611.945	42.09
612.281	42.11
612.616	42.13
612.951	42.14
613.286	42.15
613.621	42.16
613.956	42.18
614.291	42.2
614.626	42.22
614.961	42.24
615.296	42.25
615.631	42.27
615.966	42.29
616.3	42.29
616.635	42.3
616.97	42.31
617.304	42.32
617.639	42.34
617.973	42.36
618.308	42.37
618.642	42.39
618.977	42.4
619.311	42.42
619.646	42.45
619.98	42.49
620.314	42.51
620.648	42.56
620.983	42.58
621.317	42.61
621.651	42.64
621.985	42.66
622.319	42.67
622.653	42.7
622.987	42.71
623.321	42.74
623.655	42.76
623.988	42.79
624.322	42.8
624.656	42.81
624.99	42.83
625.323	42.85
625.657	42.86
625.99	42.88
626.324	42.9
626.657	42.92
626.991	42.95
627.324	42.97
627.658	42.98
627.991	43
628.324	43.02
628.657	43.05
628.991	43.08
629.324	43.1
629.657	43.13
629.99	43.15
630.323	43.17
630.656	43.19
630.989	43.21
631.322	43.23
631.655	43.25
631.987	43.27
632.32	43.29
632.653	43.3
632.986	43.32
633.318	43.33
633.651	43.33
633.984	43.34
634.316	43.36
634.649	43.38
634.981	43.39
635.313	43.39
635.646	43.41
635.978	43.42
636.31	43.43
636.643	43.45
636.975	43.47
637.307	43.48
637.639	43.5
637.971	43.52
638.303	43.53
638.635	43.55
638.967	43.58
639.299	43.6
639.631	43.62
639.963	43.64
640.295	43.65
640.626	43.68
640.958	43.7
641.29	43.72
641.621	43.74
641.953	43.78
642.285	43.78
642.616	43.81
642.948	43.8
643.279	43.82
643.61	43.84
643.942	43.87
644.273	43.88
644.604	43.9
644.936	43.91
645.267	43.94
645.598	43.96
645.929	43.98
646.26	44.01
646.591	44.01
646.922	44.04
647.253	44.06
647.584	44.08
647.915	44.1
648.245	44.13
648.576	44.15
648.907	44.17
649.238	44.19
649.568	44.2
649.899	44.21
650.229	44.24
650.56	44.26
650.89	44.29
651.221	44.31
651.551	44.33
651.882	44.37
652.212	44.4
652.542	44.41
652.872	44.43
653.203	44.47
653.533	44.48
653.863	44.5
654.193	44.51
654.523	44.52
654.853	44.53
655.183	44.56
655.513	44.57
655.843	44.6
656.172	44.61
656.502	44.65
656.832	44.65
657.162	44.67
657.491	44.68
657.821	44.69
658.15	44.71
658.48	44.74
658.809	44.75
659.139	44.77
659.468	44.8
659.798	44.81
660.127	44.84
660.456	44.87
660.785	44.89
661.115	44.91
661.444	44.91
661.773	44.92
662.102	44.93
662.431	44.93
662.76	44.95
663.089	44.96
663.418	44.99
663.747	44.98
664.076	44.99
664.404	45
664.733	45.01
665.062	45.04
665.39	45.06
665.719	45.07
666.048	45.08
666.376	45.08
666.705	45.09
667.033	45.11
667.362	45.1
667.69	45.12
668.018	45.14
668.347	45.15
668.675	45.15
669.003	45.15
669.331	45.16
669.659	45.15
669.987	45.16
670.315	45.18
670.643	45.22
670.971	45.23
671.299	45.25
