Data from UWBM12228_Reflection_00005.txt Node
Date: Sun May 02 12:53:01 EDT 2021
User: vgr7
Spectrometer: USB2G7710
Scans to average: 10
Trigger mode: 4
Integration Time (sec): 1.000000E-1
Electric dark correction enabled: true
Boxcar width: 20
XAxis mode: Wavelengths
Number of Pixels in Spectrum: 2048
>>>>>Begin Spectral Data<<<<<
177.721	99.07
178.105	98.96
178.488	97.82
178.871	97.6
179.254	96.72
179.636	93.34
180.019	91.57
180.402	88.3
180.785	85.82
181.168	82.37
181.55	80.38
181.933	117.52
182.316	118.38
182.698	119.2
183.081	119.73
183.463	120.97
183.846	123.35
184.228	125.38
184.611	127
184.993	130.62
185.376	133.97
185.758	-130.14
186.14	-67.69
186.522	-29.82
186.904	-14.37
187.287	-2.8
187.669	-0.68
188.051	4.66
188.433	11.52
188.815	6.21
189.197	7.58
189.579	9.4
189.961	8
190.342	5.44
190.724	5.97
191.106	5.39
191.488	5.83
191.869	0.24
192.251	0.62
192.633	-1.9
193.014	-3.62
193.396	-5
193.777	2.65
194.159	3.23
194.54	1.19
194.922	1.35
195.303	5.38
195.684	5.36
196.065	6.5
196.447	4.53
196.828	4.93
197.209	4.83
197.59	-5.63
197.971	-5.36
198.352	-5.86
198.733	-4.15
199.114	-5.93
199.495	-5.68
199.876	-3.44
200.257	-1.88
200.638	-0.99
201.018	-7.49
201.399	-10.47
201.78	-10.97
202.16	-11.71
202.541	-11.21
202.922	-10.26
203.302	-13.06
203.683	-13.52
204.063	-14.24
204.444	-12.89
204.824	-10.82
205.204	-7.81
205.585	2.68
205.965	1.27
206.345	2.39
206.725	-2.82
207.106	-3.82
207.486	-3.54
207.866	-3.52
208.246	-3.17
208.626	0.2
209.006	6.72
209.386	1.98
209.766	2.97
210.145	2.79
210.525	1.92
210.905	2.25
211.285	5.25
211.664	4.41
212.044	5.56
212.424	5.18
212.803	0.83
213.183	2.95
213.562	3.08
213.942	3.07
214.321	0.5
214.701	0.54
215.08	1.61
215.459	0.86
215.838	-1.12
216.218	-1.41
216.597	-2.07
216.976	-4.64
217.355	-4.83
217.734	-3.81
218.113	-2.41
218.492	-2.48
218.871	-1.74
219.25	-0.93
219.629	-1.48
220.008	-0.7
220.387	-0.18
220.766	-0.42
221.144	-2.08
221.523	0.78
221.902	1.57
222.28	2.54
222.659	4.52
223.037	4.55
223.416	5.25
223.794	6.02
224.173	5.26
224.551	4.83
224.929	4.95
225.308	5.14
225.686	4.72
226.064	5.28
226.442	5.6
226.821	4.53
227.199	4.11
227.577	3.78
227.955	3.44
228.333	3.39
228.711	3.12
229.089	3.32
229.467	2.63
229.845	3.2
230.222	3.17
230.6	3.68
230.978	3.79
231.356	3.46
231.733	3.48
232.111	3.7
232.488	3.74
232.866	4.07
233.243	3.58
233.621	3.78
233.998	3.76
234.376	4.04
234.753	4.17
235.13	4.3
235.508	4.92
235.885	4.94
236.262	5
236.639	5.18
237.016	5.03
237.393	5.01
237.77	4.86
238.147	4.75
238.524	4.82
238.901	4.83
239.278	4.85
239.655	4.84
240.032	4.71
240.409	4.75
240.785	4.77
241.162	4.84
241.539	4.81
241.915	4.81
242.292	4.84
242.668	4.8
243.045	4.8
243.421	4.7
243.798	4.69
244.174	4.71
244.551	4.66
244.927	4.53
245.303	4.51
245.679	4.53
246.056	4.47
246.432	4.43
246.808	4.21
247.184	4.21
247.56	4.18
247.936	4.18
248.312	4.15
248.688	4.23
249.064	4.18
249.44	4.17
249.815	4.17
250.191	4.09
250.567	4.04
250.943	4.09
251.318	4.1
251.694	4.06
252.069	4.03
252.445	4.05
252.82	4.14
253.196	4.16
253.571	4.12
253.947	4.18
254.322	4.14
254.697	4.27
255.073	4.27
255.448	4.26
255.823	4.23
256.198	4.18
256.573	4.02
256.948	4.01
257.323	4.01
257.698	3.95
258.073	3.95
258.448	3.83
258.823	3.81
259.198	3.8
259.573	3.8
259.948	3.85
260.322	3.82
260.697	3.81
261.072	3.8
261.446	3.8
261.821	3.78
262.195	3.76
262.57	3.75
262.944	3.75
263.319	3.74
263.693	3.76
264.067	3.76
264.442	3.86
264.816	3.85
265.19	3.83
265.564	3.91
265.938	3.9
266.313	3.94
266.687	3.9
267.061	3.88
267.435	3.86
267.809	3.84
268.183	3.81
268.556	3.83
268.93	3.84
269.304	3.83
269.678	3.8
270.051	3.78
270.425	3.78
270.799	3.81
271.172	3.83
271.546	3.83
271.919	3.82
272.293	3.8
272.666	3.79
273.04	3.8
273.413	3.75
273.787	3.74
274.16	3.75
274.533	3.79
274.906	3.76
275.279	3.77
275.653	3.76
276.026	3.73
276.399	3.71
276.772	3.69
277.145	3.71
277.518	3.73
277.891	3.74
278.263	3.75
278.636	3.75
279.009	3.76
279.382	3.74
279.755	3.69
280.127	3.7
280.5	3.71
280.872	3.67
281.245	3.76
281.617	3.77
281.99	3.8
282.362	3.83
282.735	3.81
283.107	3.81
283.479	3.83
283.852	3.84
284.224	3.85
284.596	3.83
284.968	3.72
285.34	3.71
285.713	3.69
286.085	3.61
286.457	3.61
286.829	3.58
287.201	3.59
287.572	3.64
287.944	3.64
288.316	3.67
288.688	3.69
289.06	3.68
289.431	3.69
289.803	3.68
290.175	3.69
290.546	3.7
290.918	3.71
291.289	3.69
291.661	3.7
292.032	3.67
292.403	3.69
292.775	3.77
293.146	3.76
293.517	3.78
293.889	3.85
294.26	3.84
294.631	3.86
295.002	3.91
295.373	3.93
295.744	3.91
296.115	3.91
296.486	3.86
296.857	3.85
297.228	3.85
297.599	3.83
297.97	3.84
298.34	3.85
298.711	3.79
299.082	3.78
299.452	3.8
299.823	3.83
300.194	3.84
300.564	3.83
300.935	3.83
301.305	3.82
301.676	3.8
302.046	3.8
302.416	3.79
302.787	3.78
303.157	3.71
303.527	3.72
303.897	3.73
304.267	3.74
304.637	3.75
305.008	3.77
305.378	3.77
305.748	3.75
306.117	3.81
306.487	3.85
306.857	3.9
307.227	3.9
307.597	3.89
307.967	3.88
308.336	3.89
308.706	3.9
309.076	3.9
309.445	3.9
309.815	3.79
310.184	3.78
310.554	3.72
310.923	3.75
311.293	3.76
311.662	3.75
312.031	3.74
312.401	3.73
312.77	3.71
313.139	3.69
313.508	3.71
313.877	3.67
314.246	3.65
314.616	3.64
314.985	3.58
315.353	3.58
315.722	3.59
316.091	3.59
316.46	3.6
316.829	3.62
317.198	3.64
317.567	3.78
317.935	3.79
318.304	3.85
318.672	3.87
319.041	3.86
319.41	3.86
319.778	3.87
320.147	3.88
320.515	3.88
320.883	3.87
321.252	3.8
321.62	3.84
321.988	3.84
322.357	3.83
322.725	3.9
323.093	3.89
323.461	3.9
323.829	3.89
324.197	3.88
324.565	3.86
324.933	3.86
325.301	3.83
325.669	3.84
326.037	3.82
326.405	3.8
326.772	3.78
327.14	3.77
327.508	3.76
327.875	3.76
328.243	3.76
328.61	3.72
328.978	3.73
329.346	3.72
329.713	3.68
330.08	3.68
330.448	3.67
330.815	3.63
331.182	3.63
331.55	3.63
331.917	3.63
332.284	3.63
332.651	3.64
333.018	3.62
333.385	3.61
333.752	3.63
334.119	3.62
334.486	3.63
334.853	3.61
335.22	3.6
335.587	3.59
335.954	3.59
336.32	3.62
336.687	3.6
337.054	3.6
337.42	3.62
337.787	3.61
338.153	3.63
338.52	3.66
338.886	3.69
339.253	3.68
339.619	3.68
339.986	3.66
340.352	3.65
340.718	3.66
341.084	3.67
341.451	3.65
341.817	3.63
342.183	3.62
342.549	3.64
342.915	3.64
343.281	3.65
343.647	3.66
344.013	3.68
344.379	3.7
344.745	3.71
345.11	3.72
345.476	3.73
345.842	3.74
346.208	3.73
346.573	3.72
346.939	3.73
347.304	3.72
347.67	3.72
348.035	3.74
348.401	3.73
348.766	3.74
349.132	3.74
349.497	3.76
349.862	3.76
350.228	3.78
350.593	3.79
350.958	3.77
351.323	3.75
351.688	3.76
352.053	3.75
352.418	3.75
352.783	3.74
353.148	3.73
353.513	3.71
353.878	3.71
354.243	3.71
354.608	3.71
354.972	3.71
355.337	3.72
355.702	3.7
356.066	3.7
356.431	3.69
356.795	3.7
357.16	3.69
357.524	3.68
357.889	3.68
358.253	3.68
358.618	3.69
358.982	3.69
359.346	3.7
359.71	3.7
360.075	3.7
360.439	3.7
360.803	3.69
361.167	3.67
361.531	3.69
361.895	3.7
362.259	3.69
362.623	3.68
362.987	3.67
363.351	3.68
363.714	3.68
364.078	3.68
364.442	3.68
364.806	3.69
365.169	3.67
365.533	3.67
365.896	3.67
366.26	3.66
366.623	3.66
366.987	3.65
367.35	3.66
367.714	3.67
368.077	3.67
368.44	3.68
368.803	3.68
369.167	3.67
369.53	3.67
369.893	3.68
370.256	3.68
370.619	3.69
370.982	3.69
371.345	3.69
371.708	3.7
372.071	3.69
372.434	3.69
372.797	3.71
373.159	3.72
373.522	3.71
373.885	3.71
374.247	3.69
374.61	3.69
374.973	3.68
375.335	3.68
375.698	3.68
376.06	3.68
376.423	3.67
376.785	3.68
377.147	3.68
377.51	3.69
377.872	3.7
378.234	3.69
378.596	3.71
378.958	3.73
379.321	3.73
379.683	3.74
380.045	3.73
380.407	3.74
380.769	3.74
381.13	3.75
381.492	3.75
381.854	3.76
382.216	3.76
382.578	3.75
382.939	3.76
383.301	3.76
383.663	3.77
384.024	3.76
384.386	3.77
384.747	3.77
385.109	3.76
385.47	3.76
385.832	3.76
386.193	3.77
386.554	3.76
386.916	3.77
387.277	3.77
387.638	3.79
387.999	3.79
388.36	3.79
388.721	3.8
389.082	3.8
389.443	3.8
389.804	3.8
390.165	3.81
390.526	3.81
390.887	3.81
391.248	3.81
391.609	3.82
391.969	3.81
392.33	3.82
392.691	3.82
393.051	3.82
393.412	3.81
393.772	3.82
394.133	3.83
394.493	3.82
394.854	3.83
395.214	3.82
395.574	3.82
395.935	3.81
396.295	3.81
396.655	3.81
397.015	3.81
397.376	3.81
397.736	3.82
398.096	3.81
398.456	3.82
398.816	3.83
399.176	3.82
399.535	3.83
399.895	3.84
400.255	3.84
400.615	3.84
400.975	3.85
401.334	3.85
401.694	3.85
402.054	3.86
402.413	3.84
402.773	3.84
403.132	3.86
403.492	3.85
403.851	3.86
404.211	3.87
404.57	3.88
404.929	3.89
405.288	3.89
405.648	3.89
406.007	3.9
406.366	3.9
406.725	3.91
407.084	3.92
407.443	3.92
407.802	3.92
408.161	3.92
408.52	3.91
408.879	3.92
409.238	3.92
409.596	3.92
409.955	3.94
410.314	3.94
410.673	3.94
411.031	3.95
411.39	3.95
411.748	3.96
412.107	3.97
412.465	3.98
412.824	4
413.182	4.02
413.54	4.04
413.899	4.06
414.257	4.1
414.615	4.14
414.974	4.17
415.332	4.21
415.69	4.25
416.048	4.27
416.406	4.32
416.764	4.35
417.122	4.38
417.48	4.41
417.838	4.44
418.195	4.46
418.553	4.48
418.911	4.49
419.269	4.5
419.626	4.49
419.984	4.49
420.342	4.47
420.699	4.46
421.057	4.44
421.414	4.42
421.772	4.41
422.129	4.41
422.486	4.4
422.844	4.4
423.201	4.4
423.558	4.4
423.915	4.4
424.273	4.4
424.63	4.4
424.987	4.4
425.344	4.4
425.701	4.4
426.058	4.41
426.415	4.41
426.772	4.4
427.128	4.4
427.485	4.39
427.842	4.39
428.199	4.38
428.555	4.36
428.912	4.35
429.269	4.32
429.625	4.3
429.982	4.28
430.338	4.25
430.695	4.24
431.051	4.2
431.407	4.18
431.764	4.16
432.12	4.14
432.476	4.14
432.832	4.13
433.189	4.13
433.545	4.14
433.901	4.15
434.257	4.18
434.613	4.2
434.969	4.23
435.325	4.26
435.681	4.3
436.036	4.31
436.392	4.33
436.748	4.33
437.104	4.34
437.459	4.35
437.815	4.37
438.171	4.39
438.526	4.41
438.882	4.44
439.237	4.47
439.593	4.51
439.948	4.54
440.304	4.57
440.659	4.6
441.014	4.61
441.369	4.64
441.725	4.66
442.08	4.67
442.435	4.68
442.79	4.69
443.145	4.69
443.5	4.69
443.855	4.69
444.21	4.69
444.565	4.68
444.92	4.67
445.275	4.66
445.629	4.65
445.984	4.65
446.339	4.65
446.693	4.65
447.048	4.63
447.403	4.61
447.757	4.59
448.112	4.57
448.466	4.55
448.82	4.54
449.175	4.52
449.529	4.51
449.883	4.5
450.238	4.47
450.592	4.47
450.946	4.46
451.3	4.47
451.654	4.48
452.008	4.47
452.362	4.48
452.716	4.49
453.07	4.49
453.424	4.48
453.778	4.48
454.132	4.46
454.486	4.45
454.839	4.44
455.193	4.41
455.547	4.4
455.9	4.37
456.254	4.35
456.607	4.33
456.961	4.3
457.314	4.28
457.668	4.27
458.021	4.27
458.375	4.27
458.728	4.27
459.081	4.27
459.434	4.28
459.787	4.29
460.141	4.3
460.494	4.3
460.847	4.3
461.2	4.31
461.553	4.32
461.906	4.32
462.259	4.32
462.611	4.33
462.964	4.33
463.317	4.33
463.67	4.33
464.022	4.33
464.375	4.33
464.728	4.33
465.08	4.33
465.433	4.33
465.785	4.33
466.138	4.31
466.49	4.3
466.843	4.28
467.195	4.26
467.547	4.24
467.899	4.22
468.252	4.19
468.604	4.16
468.956	4.14
469.308	4.13
469.66	4.13
470.012	4.12
470.364	4.12
470.716	4.13
471.068	4.14
471.42	4.17
471.772	4.18
472.123	4.19
472.475	4.21
472.827	4.21
473.178	4.22
473.53	4.23
473.882	4.24
474.233	4.26
474.585	4.3
474.936	4.36
475.288	4.45
475.639	4.57
475.99	4.71
476.342	4.86
476.693	5.03
477.044	5.19
477.395	5.36
477.746	5.54
478.097	5.72
478.448	5.9
478.8	6.08
479.15	6.24
479.501	6.38
479.852	6.52
480.203	6.64
480.554	6.77
480.905	6.89
481.255	7
481.606	7.1
481.957	7.2
482.307	7.29
482.658	7.38
483.009	7.47
483.359	7.55
483.709	7.63
484.06	7.71
484.41	7.79
484.761	7.86
485.111	7.93
485.461	8
485.811	8.06
486.162	8.11
486.512	8.16
486.862	8.2
487.212	8.23
487.562	8.25
487.912	8.26
488.262	8.27
488.612	8.26
488.961	8.24
489.311	8.2
489.661	8.13
490.011	8.04
490.36	7.93
490.71	7.8
491.06	7.66
491.409	7.51
491.759	7.36
492.108	7.2
492.458	7.04
492.807	6.87
493.157	6.7
493.506	6.53
493.855	6.38
494.204	6.24
494.554	6.1
494.903	5.97
495.252	5.85
495.601	5.73
495.95	5.62
496.299	5.51
496.648	5.41
496.997	5.32
497.346	5.23
497.695	5.14
498.043	5.05
498.392	4.97
498.741	4.89
499.09	4.81
499.438	4.73
499.787	4.66
500.135	4.59
500.484	4.53
500.832	4.49
501.181	4.45
501.529	4.41
501.878	4.39
502.226	4.38
502.574	4.38
502.923	4.38
503.271	4.37
503.619	4.37
503.967	4.38
504.315	4.37
504.663	4.37
505.011	4.36
505.359	4.35
505.707	4.35
506.055	4.35
506.403	4.35
506.751	4.35
507.098	4.35
507.446	4.36
507.794	4.37
508.141	4.38
508.489	4.4
508.837	4.42
509.184	4.43
509.531	4.45
509.879	4.45
510.226	4.47
510.574	4.48
510.921	4.49
511.268	4.5
511.616	4.51
511.963	4.53
512.31	4.55
512.657	4.57
513.004	4.59
513.351	4.61
513.698	4.61
514.045	4.61
514.392	4.62
514.739	4.63
515.086	4.62
515.432	4.62
515.779	4.62
516.126	4.62
516.473	4.62
516.819	4.62
517.166	4.63
517.512	4.64
517.859	4.65
518.205	4.66
518.552	4.69
518.898	4.72
519.245	4.76
519.591	4.82
519.937	4.89
520.283	4.97
520.629	5.07
520.976	5.19
521.322	5.3
521.668	5.42
522.014	5.53
522.36	5.64
522.706	5.76
523.052	5.87
523.398	5.97
523.743	6.06
524.089	6.14
524.435	6.21
524.781	6.27
525.126	6.33
525.472	6.39
525.817	6.44
526.163	6.49
526.509	6.54
526.854	6.59
527.199	6.63
527.545	6.68
527.89	6.73
528.235	6.77
528.581	6.82
528.926	6.86
529.271	6.91
529.616	6.94
529.961	6.97
530.306	6.99
530.651	7.02
530.996	7.03
531.341	7.04
531.686	7.05
532.031	7.04
532.376	7.05
532.721	7.04
533.065	7.04
533.41	7.05
533.755	7.04
534.099	7
534.444	6.97
534.788	6.94
535.133	6.9
535.477	6.85
535.822	6.8
536.166	6.74
536.51	6.67
536.855	6.59
537.199	6.51
537.543	6.43
537.887	6.36
538.231	6.3
538.576	6.24
538.92	6.18
539.264	6.12
539.608	6.07
539.951	6.01
540.295	5.94
540.639	5.88
540.983	5.82
541.327	5.77
541.671	5.71
542.014	5.65
542.358	5.59
542.701	5.55
543.045	5.52
543.389	5.5
543.732	5.48
544.075	5.47
544.419	5.45
544.762	5.42
545.105	5.41
545.449	5.41
545.792	5.4
546.135	5.4
546.478	5.39
546.821	5.37
547.165	5.34
547.508	5.29
547.851	5.25
548.194	5.19
548.536	5.13
548.879	5.07
549.222	5
549.565	4.93
549.908	4.86
550.25	4.79
550.593	4.74
550.936	4.69
551.278	4.66
551.621	4.63
551.963	4.6
552.306	4.58
552.648	4.57
552.991	4.55
553.333	4.53
553.675	4.53
554.017	4.53
554.36	4.53
554.702	4.54
555.044	4.54
555.386	4.56
555.728	4.57
556.07	4.58
556.412	4.59
556.754	4.58
557.096	4.58
557.438	4.58
557.78	4.58
558.121	4.58
558.463	4.58
558.805	4.58
559.147	4.58
559.488	4.58
559.83	4.58
560.171	4.59
560.513	4.58
560.854	4.58
561.196	4.58
561.537	4.58
561.878	4.58
562.22	4.58
562.561	4.58
562.902	4.59
563.243	4.6
563.584	4.6
563.925	4.6
564.266	4.6
564.607	4.6
564.948	4.61
565.289	4.61
565.63	4.62
565.971	4.62
566.312	4.62
566.653	4.62
566.993	4.62
567.334	4.62
567.675	4.63
568.015	4.64
568.356	4.65
568.696	4.65
569.037	4.65
569.377	4.65
569.718	4.65
570.058	4.65
570.398	4.65
570.739	4.66
571.079	4.65
571.419	4.65
571.759	4.65
572.099	4.65
572.439	4.65
572.779	4.65
573.119	4.65
573.459	4.64
573.799	4.65
574.139	4.65
574.479	4.66
574.819	4.65
575.158	4.65
575.498	4.65
575.838	4.65
576.177	4.65
576.517	4.65
576.856	4.64
577.196	4.64
577.535	4.63
577.875	4.63
578.214	4.63
578.553	4.63
578.893	4.62
579.232	4.62
579.571	4.61
579.91	4.61
580.25	4.6
580.589	4.6
580.928	4.59
581.267	4.59
581.606	4.58
581.945	4.58
582.283	4.57
582.622	4.57
582.961	4.57
583.3	4.57
583.639	4.57
583.977	4.57
584.316	4.57
584.654	4.58
584.993	4.58
585.332	4.57
585.67	4.57
586.008	4.57
586.347	4.57
586.685	4.58
587.024	4.58
587.362	4.58
587.7	4.58
588.038	4.58
588.376	4.58
588.715	4.58
589.053	4.58
589.391	4.59
589.729	4.59
590.067	4.59
590.404	4.59
590.742	4.59
591.08	4.59
591.418	4.59
591.756	4.59
592.093	4.6
592.431	4.62
592.769	4.62
593.106	4.62
593.444	4.62
593.781	4.62
594.119	4.62
594.456	4.62
594.793	4.62
595.131	4.62
595.468	4.62
595.805	4.61
596.143	4.62
596.48	4.62
596.817	4.63
597.154	4.63
597.491	4.64
597.828	4.64
598.165	4.64
598.502	4.65
598.839	4.64
599.176	4.64
599.512	4.65
599.849	4.65
600.186	4.65
600.523	4.65
600.859	4.65
601.196	4.65
601.532	4.65
601.869	4.65
602.205	4.65
602.542	4.65
602.878	4.66
603.215	4.65
603.551	4.64
603.887	4.64
604.223	4.65
604.56	4.65
604.896	4.65
605.232	4.65
605.568	4.65
605.904	4.65
606.24	4.65
606.576	4.66
606.912	4.66
607.248	4.66
607.583	4.66
607.919	4.66
608.255	4.65
608.591	4.66
608.926	4.66
609.262	4.66
609.597	4.66
609.933	4.67
610.268	4.68
610.604	4.68
610.939	4.68
611.275	4.67
611.61	4.68
611.945	4.67
612.281	4.67
612.616	4.67
612.951	4.66
613.286	4.66
613.621	4.65
613.956	4.65
614.291	4.66
614.626	4.66
614.961	4.67
615.296	4.66
615.631	4.67
615.966	4.66
616.3	4.67
616.635	4.67
616.97	4.66
617.304	4.66
617.639	4.66
617.973	4.66
618.308	4.66
618.642	4.65
618.977	4.64
619.311	4.64
619.646	4.64
619.98	4.66
620.314	4.65
620.648	4.66
620.983	4.66
621.317	4.66
621.651	4.66
621.985	4.67
622.319	4.66
622.653	4.67
622.987	4.67
623.321	4.66
623.655	4.67
623.988	4.68
624.322	4.67
624.656	4.67
624.99	4.67
625.323	4.68
625.657	4.67
625.99	4.69
626.324	4.7
626.657	4.7
626.991	4.7
627.324	4.7
627.658	4.7
627.991	4.69
628.324	4.7
628.657	4.71
628.991	4.71
629.324	4.72
629.657	4.73
629.99	4.73
630.323	4.73
630.656	4.73
630.989	4.73
631.322	4.74
631.655	4.73
631.987	4.74
632.32	4.74
632.653	4.75
632.986	4.75
633.318	4.75
633.651	4.75
633.984	4.75
634.316	4.76
634.649	4.76
634.981	4.77
635.313	4.76
635.646	4.76
635.978	4.76
636.31	4.75
636.643	4.74
636.975	4.74
637.307	4.73
637.639	4.73
637.971	4.74
638.303	4.75
638.635	4.75
638.967	4.75
639.299	4.75
639.631	4.75
639.963	4.76
640.295	4.76
640.626	4.77
640.958	4.78
641.29	4.77
641.621	4.77
641.953	4.78
642.285	4.78
642.616	4.79
642.948	4.78
643.279	4.79
643.61	4.78
643.942	4.78
644.273	4.78
644.604	4.77
644.936	4.77
645.267	4.78
645.598	4.78
645.929	4.78
646.26	4.78
646.591	4.77
646.922	4.76
647.253	4.77
647.584	4.76
647.915	4.77
648.245	4.77
648.576	4.77
648.907	4.77
649.238	4.77
649.568	4.75
649.899	4.75
650.229	4.76
650.56	4.78
650.89	4.79
651.221	4.8
651.551	4.8
651.882	4.81
652.212	4.81
652.542	4.81
652.872	4.81
653.203	4.82
653.533	4.82
653.863	4.81
654.193	4.81
654.523	4.82
654.853	4.81
655.183	4.82
655.513	4.82
655.843	4.83
656.172	4.83
656.502	4.84
656.832	4.83
657.162	4.83
657.491	4.83
657.821	4.83
658.15	4.83
658.48	4.83
658.809	4.83
659.139	4.83
659.468	4.85
659.798	4.85
660.127	4.85
660.456	4.89
660.785	4.89
661.115	4.91
661.444	4.91
661.773	4.91
662.102	4.92
662.431	4.93
662.76	4.94
663.089	4.94
663.418	4.95
663.747	4.95
664.076	4.95
664.404	4.94
664.733	4.95
665.062	4.96
665.39	4.97
665.719	4.96
666.048	4.96
666.376	4.95
666.705	4.94
667.033	4.92
667.362	4.92
667.69	4.92
668.018	4.91
668.347	4.92
668.675	4.9
669.003	4.9
669.331	4.9
669.659	4.9
669.987	4.9
670.315	4.9
670.643	4.93
670.971	4.94
671.299	4.93
671.627	4.92
671.955	4.92
672.283	4.92
672.61	4.93
672.938	4.94
673.266	4.95
673.593	4.95
673.921	4.95
674.249	4.95
674.576	4.95
674.904	4.97
675.231	4.97
675.558	4.98
675.886	4.99
676.213	4.98
676.54	4.99
676.867	4.99
677.195	5
677.522	5.01
677.849	5.03
678.176	5.04
678.503	5.04
678.83	5.04
679.157	5.05
679.484	5.04
679.81	5.04
680.137	5.04
680.464	5.05
680.791	5.04
681.117	5.03
681.444	5.02
