Data from UWBM59056_Reflection_00014.txt Node
Date: Sun May 02 13:46:06 EDT 2021
User: vgr7
Spectrometer: USB2G7710
Scans to average: 10
Trigger mode: 4
Integration Time (sec): 1.000000E-1
Electric dark correction enabled: true
Boxcar width: 20
XAxis mode: Wavelengths
Number of Pixels in Spectrum: 2048
>>>>>Begin Spectral Data<<<<<
177.721	120.63
178.105	101.87
178.488	97.06
178.871	126.92
179.254	124.15
179.636	86.19
180.019	66.54
180.402	49.58
180.785	47.2
181.168	43.62
181.55	36.29
181.933	36.67
182.316	25.63
182.698	24.25
183.081	22.01
183.463	14.25
183.846	9.88
184.228	11.88
184.611	11.77
184.993	12.58
185.376	10.81
185.758	13.23
186.14	18.51
186.522	16.18
186.904	14.22
187.287	12.02
187.669	14.64
188.051	14.49
188.433	12.68
188.815	10.54
189.197	10.35
189.579	11.28
189.961	9.87
190.342	10.67
190.724	9.6
191.106	10.23
191.488	11.04
191.869	9.47
192.251	8.39
192.633	7.06
193.014	6.93
193.396	2.93
193.777	3.86
194.159	3.43
194.54	2.5
194.922	-0.07
195.303	-1.55
195.684	-2.16
196.065	-0.57
196.447	-0.89
196.828	-1.72
197.209	-2.81
197.59	-7.36
197.971	-5.03
198.352	-3.54
198.733	-1.36
199.114	0.42
199.495	0.09
199.876	-2.14
200.257	-1.25
200.638	-3.22
201.018	-1.29
201.399	-1.3
201.78	-4.26
202.16	-3.87
202.541	-4.61
202.922	-2.2
203.302	-0.59
203.683	-2.18
204.063	-2.09
204.444	-1.55
204.824	-1.12
205.204	-2.03
205.585	-1.47
205.965	-1.22
206.345	-0.79
206.725	-0.57
207.106	-0.57
207.486	-1.06
207.866	0.01
208.246	-1.35
208.626	-2.72
209.006	-1.46
209.386	-1.95
209.766	-2.35
210.145	-3.32
210.525	-0.68
210.905	0.68
211.285	-0.39
211.664	-1.78
212.044	-2.7
212.424	-3.48
212.803	-1.75
213.183	-0.18
213.562	0.51
213.942	0.2
214.321	-1.78
214.701	-1.51
215.08	0.32
215.459	1.99
215.838	1.2
216.218	1
216.597	-0.05
216.976	0.56
217.355	0.67
217.734	0.49
218.113	1.6
218.492	-0.87
218.871	-2.25
219.25	-0.79
219.629	0.68
220.008	0.23
220.387	-0.36
220.766	0.73
221.144	0.56
221.523	1.56
221.902	2.02
222.28	1.35
222.659	1.03
223.037	1.67
223.416	2.01
223.794	2.72
224.173	3.31
224.551	3.19
224.929	4.68
225.308	4.92
225.686	5.23
226.064	4.54
226.442	4.78
226.821	5.62
227.199	6.34
227.577	6.53
227.955	7.07
228.333	6.81
228.711	6.82
229.089	6.14
229.467	5.4
229.845	5.25
230.222	5.08
230.6	4.92
230.978	4.75
231.356	4.92
231.733	5.15
232.111	5.15
232.488	4.98
232.866	4.89
233.243	4.77
233.621	4.73
233.998	4.78
234.376	4.81
234.753	4.47
235.13	4.31
235.508	4.29
235.885	4.26
236.262	4.07
236.639	4.06
237.016	3.91
237.393	3.87
237.77	3.79
238.147	3.76
238.524	3.7
238.901	3.69
239.278	3.74
239.655	3.73
240.032	3.7
240.409	3.63
240.785	3.64
241.162	3.65
241.539	3.58
241.915	3.55
242.292	3.52
242.668	3.53
243.045	3.55
243.421	3.51
243.798	3.52
244.174	3.59
244.551	3.62
244.927	3.66
245.303	3.67
245.679	3.69
246.056	3.62
246.432	3.62
246.808	3.56
247.184	3.59
247.56	3.6
247.936	3.59
248.312	3.59
248.688	3.58
249.064	3.54
249.44	3.58
249.815	3.57
250.191	3.55
250.567	3.58
250.943	3.54
251.318	3.53
251.694	3.51
252.069	3.5
252.445	3.5
252.82	3.49
253.196	3.47
253.571	3.46
253.947	3.46
254.322	3.44
254.697	3.41
255.073	3.4
255.448	3.41
255.823	3.37
256.198	3.37
256.573	3.33
256.948	3.37
257.323	3.34
257.698	3.3
258.073	3.26
258.448	3.22
258.823	3.21
259.198	3.19
259.573	3.15
259.948	3.15
260.322	3.13
260.697	3.11
261.072	3.09
261.446	3.09
261.821	3.09
262.195	3.1
262.57	3.07
262.944	3.06
263.319	3.06
263.693	3.06
264.067	3.05
264.442	3.05
264.816	3.01
265.19	3.03
265.564	3.04
265.938	3.03
266.313	3.01
266.687	2.99
267.061	3.01
267.435	3
267.809	2.98
268.183	2.97
268.556	2.97
268.93	2.97
269.304	2.97
269.678	2.96
270.051	2.95
270.425	2.93
270.799	2.92
271.172	2.93
271.546	2.94
271.919	2.96
272.293	2.94
272.666	2.92
273.04	2.96
273.413	3
273.787	3.04
274.16	3.03
274.533	3.03
274.906	3.03
275.279	3.03
275.653	3.02
276.026	3.04
276.399	3.06
276.772	3.09
277.145	3.08
277.518	3.09
277.891	3.11
278.263	3.11
278.636	3.12
279.009	3.12
279.382	3.15
279.755	3.14
280.127	3.16
280.5	3.16
280.872	3.18
281.245	3.18
281.617	3.19
281.99	3.22
282.362	3.21
282.735	3.2
283.107	3.22
283.479	3.2
283.852	3.22
284.224	3.22
284.596	3.22
284.968	3.22
285.34	3.24
285.713	3.25
286.085	3.25
286.457	3.25
286.829	3.24
287.201	3.25
287.572	3.26
287.944	3.28
288.316	3.28
288.688	3.26
289.06	3.25
289.431	3.27
289.803	3.28
290.175	3.3
290.546	3.33
290.918	3.36
291.289	3.37
291.661	3.39
292.032	3.39
292.403	3.38
292.775	3.39
293.146	3.4
293.517	3.41
293.889	3.43
294.26	3.45
294.631	3.47
295.002	3.5
295.373	3.52
295.744	3.53
296.115	3.55
296.486	3.6
296.857	3.64
297.228	3.65
297.599	3.68
297.97	3.72
298.34	3.74
298.711	3.77
299.082	3.8
299.452	3.84
299.823	3.86
300.194	3.89
300.564	3.92
300.935	3.96
301.305	3.99
301.676	4.02
302.046	4.07
302.416	4.1
302.787	4.13
303.157	4.16
303.527	4.19
303.897	4.24
304.267	4.29
304.637	4.33
305.008	4.38
305.378	4.41
305.748	4.44
306.117	4.48
306.487	4.54
306.857	4.59
307.227	4.64
307.597	4.71
307.967	4.77
308.336	4.82
308.706	4.87
309.076	4.91
309.445	4.95
309.815	4.99
310.184	5.03
310.554	5.06
310.923	5.12
311.293	5.15
311.662	5.18
312.031	5.22
312.401	5.27
312.77	5.31
313.139	5.35
313.508	5.42
313.877	5.49
314.246	5.53
314.616	5.56
314.985	5.62
315.353	5.68
315.722	5.7
316.091	5.76
316.46	5.81
316.829	5.88
317.198	5.94
317.567	6.01
317.935	6.08
318.304	6.15
318.672	6.22
319.041	6.3
319.41	6.36
319.778	6.43
320.147	6.47
320.515	6.54
320.883	6.59
321.252	6.65
321.62	6.7
321.988	6.76
322.357	6.82
322.725	6.87
323.093	6.91
323.461	6.96
323.829	7.02
324.197	7.07
324.565	7.13
324.933	7.17
325.301	7.21
325.669	7.27
326.037	7.31
326.405	7.36
326.772	7.42
327.14	7.46
327.508	7.49
327.875	7.54
328.243	7.59
328.61	7.62
328.978	7.64
329.346	7.67
329.713	7.73
330.08	7.77
330.448	7.8
330.815	7.82
331.182	7.86
331.55	7.92
331.917	7.96
332.284	7.98
332.651	8.02
333.018	8.07
333.385	8.12
333.752	8.15
334.119	8.19
334.486	8.25
334.853	8.3
335.22	8.36
335.587	8.39
335.954	8.43
336.32	8.46
336.687	8.5
337.054	8.54
337.42	8.57
337.787	8.61
338.153	8.65
338.52	8.67
338.886	8.7
339.253	8.74
339.619	8.77
339.986	8.8
340.352	8.85
340.718	8.88
341.084	8.92
341.451	8.96
341.817	8.99
342.183	9.03
342.549	9.07
342.915	9.11
343.281	9.13
343.647	9.17
344.013	9.2
344.379	9.23
344.745	9.27
345.11	9.28
345.476	9.31
345.842	9.35
346.208	9.38
346.573	9.38
346.939	9.41
347.304	9.44
347.67	9.46
348.035	9.49
348.401	9.5
348.766	9.55
349.132	9.56
349.497	9.59
349.862	9.6
350.228	9.62
350.593	9.64
350.958	9.67
351.323	9.68
351.688	9.7
352.053	9.72
352.418	9.73
352.783	9.74
353.148	9.75
353.513	9.76
353.878	9.77
354.243	9.77
354.608	9.78
354.972	9.79
355.337	9.78
355.702	9.78
356.066	9.78
356.431	9.77
356.795	9.76
357.16	9.74
357.524	9.75
357.889	9.75
358.253	9.74
358.618	9.72
358.982	9.72
359.346	9.72
359.71	9.71
360.075	9.71
360.439	9.7
360.803	9.69
361.167	9.68
361.531	9.67
361.895	9.65
362.259	9.63
362.623	9.61
362.987	9.59
363.351	9.57
363.714	9.54
364.078	9.52
364.442	9.49
364.806	9.46
365.169	9.44
365.533	9.42
365.896	9.38
366.26	9.36
366.623	9.33
366.987	9.29
367.35	9.26
367.714	9.22
368.077	9.19
368.44	9.15
368.803	9.11
369.167	9.06
369.53	9.01
369.893	8.95
370.256	8.9
370.619	8.85
370.982	8.8
371.345	8.74
371.708	8.7
372.071	8.65
372.434	8.59
372.797	8.53
373.159	8.47
373.522	8.43
373.885	8.37
374.247	8.32
374.61	8.25
374.973	8.18
375.335	8.13
375.698	8.07
376.06	8.01
376.423	7.95
376.785	7.9
377.147	7.84
377.51	7.78
377.872	7.72
378.234	7.67
378.596	7.61
378.958	7.55
379.321	7.49
379.683	7.44
380.045	7.39
380.407	7.34
380.769	7.28
381.13	7.23
381.492	7.17
381.854	7.12
382.216	7.07
382.578	7.03
382.939	6.98
383.301	6.94
383.663	6.9
384.024	6.85
384.386	6.81
384.747	6.77
385.109	6.72
385.47	6.68
385.832	6.63
386.193	6.59
386.554	6.55
386.916	6.5
387.277	6.46
387.638	6.42
387.999	6.39
388.36	6.34
388.721	6.31
389.082	6.27
389.443	6.24
389.804	6.21
390.165	6.17
390.526	6.14
390.887	6.1
391.248	6.07
391.609	6.03
391.969	5.99
392.33	5.96
392.691	5.93
393.051	5.89
393.412	5.86
393.772	5.82
394.133	5.79
394.493	5.74
394.854	5.7
395.214	5.66
395.574	5.63
395.935	5.6
396.295	5.56
396.655	5.52
397.015	5.48
397.376	5.44
397.736	5.4
398.096	5.36
398.456	5.32
398.816	5.29
399.176	5.25
399.535	5.22
399.895	5.18
400.255	5.15
400.615	5.12
400.975	5.08
401.334	5.05
401.694	5.02
402.054	4.99
402.413	4.96
402.773	4.93
403.132	4.91
403.492	4.88
403.851	4.85
404.211	4.83
404.57	4.81
404.929	4.79
405.288	4.76
405.648	4.75
406.007	4.73
406.366	4.71
406.725	4.69
407.084	4.68
407.443	4.66
407.802	4.64
408.161	4.63
408.52	4.61
408.879	4.6
409.238	4.58
409.596	4.57
409.955	4.56
410.314	4.55
410.673	4.53
411.031	4.52
411.39	4.51
411.748	4.5
412.107	4.49
412.465	4.48
412.824	4.48
413.182	4.49
413.54	4.5
413.899	4.51
414.257	4.52
414.615	4.54
414.974	4.56
415.332	4.59
415.69	4.61
416.048	4.62
416.406	4.65
416.764	4.65
417.122	4.67
417.48	4.68
417.838	4.7
418.195	4.7
418.553	4.71
418.911	4.71
419.269	4.7
419.626	4.68
419.984	4.66
420.342	4.64
420.699	4.61
421.057	4.58
421.414	4.55
421.772	4.52
422.129	4.5
422.486	4.49
422.844	4.48
423.201	4.46
423.558	4.45
423.915	4.44
424.273	4.43
424.63	4.42
424.987	4.41
425.344	4.39
425.701	4.38
426.058	4.37
426.415	4.36
426.772	4.35
427.128	4.34
427.485	4.32
427.842	4.29
428.199	4.27
428.555	4.25
428.912	4.22
429.269	4.18
429.625	4.15
429.982	4.12
430.338	4.09
430.695	4.06
431.051	4.02
431.407	4
431.764	3.98
432.12	3.95
432.476	3.93
432.832	3.92
433.189	3.92
433.545	3.92
433.901	3.93
434.257	3.95
434.613	3.97
434.969	3.99
435.325	4.02
435.681	4.06
436.036	4.07
436.392	4.09
436.748	4.11
437.104	4.12
437.459	4.13
437.815	4.15
438.171	4.17
438.526	4.19
438.882	4.22
439.237	4.25
439.593	4.28
439.948	4.31
440.304	4.34
440.659	4.36
441.014	4.38
441.369	4.4
441.725	4.41
442.08	4.43
442.435	4.44
442.79	4.44
443.145	4.44
443.5	4.44
443.855	4.44
444.21	4.43
444.565	4.42
444.92	4.41
445.275	4.4
445.629	4.38
445.984	4.37
446.339	4.35
446.693	4.34
447.048	4.32
447.403	4.3
447.757	4.28
448.112	4.25
448.466	4.23
448.82	4.2
449.175	4.17
449.529	4.15
449.883	4.13
450.238	4.11
450.592	4.1
450.946	4.08
451.3	4.07
451.654	4.07
452.008	4.07
452.362	4.07
452.716	4.06
453.07	4.06
453.424	4.04
453.778	4.03
454.132	4.02
454.486	4
454.839	3.98
455.193	3.96
455.547	3.95
455.9	3.92
456.254	3.9
456.607	3.87
456.961	3.85
457.314	3.83
457.668	3.82
458.021	3.82
458.375	3.81
458.728	3.81
459.081	3.82
459.434	3.84
459.787	3.85
460.141	3.87
460.494	3.88
460.847	3.89
461.2	3.9
461.553	3.91
461.906	3.92
462.259	3.94
462.611	3.95
462.964	3.96
463.317	3.97
463.67	3.99
464.022	4
464.375	4.02
464.728	4.03
465.08	4.04
465.433	4.05
465.785	4.06
466.138	4.06
466.49	4.06
466.843	4.06
467.195	4.05
467.547	4.05
467.899	4.04
468.252	4.03
468.604	4.02
468.956	4.02
469.308	4.02
469.66	4.04
470.012	4.05
470.364	4.06
470.716	4.08
471.068	4.11
471.42	4.14
471.772	4.17
472.123	4.19
472.475	4.21
472.827	4.23
473.178	4.25
473.53	4.26
473.882	4.28
474.233	4.3
474.585	4.34
474.936	4.4
475.288	4.49
475.639	4.6
475.99	4.73
476.342	4.87
476.693	5.02
477.044	5.17
477.395	5.33
477.746	5.5
478.097	5.66
478.448	5.82
478.8	5.98
479.15	6.13
479.501	6.27
479.852	6.39
480.203	6.51
480.554	6.61
480.905	6.72
481.255	6.81
481.606	6.91
481.957	6.99
482.307	7.07
482.658	7.15
483.009	7.23
483.359	7.3
483.709	7.37
484.06	7.43
484.41	7.5
484.761	7.56
485.111	7.62
485.461	7.67
485.811	7.73
486.162	7.77
486.512	7.82
486.862	7.85
487.212	7.87
487.562	7.89
487.912	7.9
488.262	7.9
488.612	7.9
488.961	7.88
489.311	7.84
489.661	7.78
490.011	7.7
490.36	7.61
490.71	7.5
491.06	7.38
491.409	7.26
491.759	7.13
492.108	7
492.458	6.86
492.807	6.72
493.157	6.58
493.506	6.45
493.855	6.33
494.204	6.22
494.554	6.11
494.903	6.03
495.252	5.94
495.601	5.87
495.95	5.8
496.299	5.74
496.648	5.69
496.997	5.64
497.346	5.61
497.695	5.57
498.043	5.55
498.392	5.53
498.741	5.51
499.09	5.51
499.438	5.51
499.787	5.52
500.135	5.54
500.484	5.57
500.832	5.62
501.181	5.68
501.529	5.76
501.878	5.86
502.226	5.97
502.574	6.09
502.923	6.21
503.271	6.35
503.619	6.49
503.967	6.65
504.315	6.8
504.663	6.96
505.011	7.12
505.359	7.29
505.707	7.46
506.055	7.65
506.403	7.83
506.751	8.03
507.098	8.24
507.446	8.45
507.794	8.68
508.141	8.92
508.489	9.17
508.837	9.42
509.184	9.68
509.531	9.95
509.879	10.24
510.226	10.54
510.574	10.86
510.921	11.19
511.268	11.52
511.616	11.88
511.963	12.24
512.31	12.61
512.657	12.97
513.004	13.34
513.351	13.69
513.698	14.03
514.045	14.37
514.392	14.68
514.739	14.99
515.086	15.28
515.432	15.58
515.779	15.88
516.126	16.2
516.473	16.53
516.819	16.88
517.166	17.25
517.512	17.64
517.859	18.06
518.205	18.5
518.552	18.98
518.898	19.48
519.245	20.04
519.591	20.71
519.937	21.48
520.283	22.34
520.629	23.27
520.976	24.25
521.322	25.25
521.668	26.27
522.014	27.28
522.36	28.28
522.706	29.27
523.052	30.24
523.398	31.15
523.743	32.01
524.089	32.78
524.435	33.51
524.781	34.22
525.126	34.91
525.472	35.59
525.817	36.25
526.163	36.9
526.509	37.52
526.854	38.15
527.199	38.76
527.545	39.36
527.89	39.99
528.235	40.6
528.581	41.18
528.926	41.72
529.271	42.24
529.616	42.73
529.961	43.2
530.306	43.61
530.651	43.99
530.996	44.35
531.341	44.66
531.686	44.95
532.031	45.22
532.376	45.52
532.721	45.83
533.065	46.18
533.41	46.53
533.755	46.83
534.099	47.06
534.444	47.24
534.788	47.39
535.133	47.49
535.477	47.56
535.822	47.58
536.166	47.55
536.51	47.45
536.855	47.28
537.199	47.07
537.543	46.86
537.887	46.69
538.231	46.57
538.576	46.45
538.92	46.32
539.264	46.17
539.608	46
539.951	45.8
540.295	45.59
540.639	45.35
540.983	45.1
541.327	44.83
541.671	44.56
542.014	44.32
542.358	44.1
542.701	44.02
543.045	43.99
543.389	43.99
543.732	44.01
544.075	44.07
544.419	44.14
544.762	44.22
545.105	44.32
545.449	44.44
545.792	44.57
546.135	44.69
546.478	44.76
546.821	44.77
547.165	44.69
547.508	44.54
547.851	44.34
548.194	44.08
548.536	43.76
548.879	43.39
549.222	43
549.565	42.6
549.908	42.21
550.25	41.84
550.593	41.55
550.936	41.35
551.278	41.21
551.621	41.12
551.963	41.05
552.306	41.01
552.648	41.01
552.991	41.05
553.333	41.11
553.675	41.2
554.017	41.35
554.36	41.51
554.702	41.72
555.044	41.97
555.386	42.27
555.728	42.58
556.07	42.85
556.412	43.12
556.754	43.25
557.096	43.38
557.438	43.51
557.78	43.64
558.121	43.76
558.463	43.87
558.805	43.99
559.147	44.11
559.488	44.24
559.83	44.36
560.171	44.47
560.513	44.59
560.854	44.7
561.196	44.81
561.537	44.91
561.878	45.02
562.22	45.13
562.561	45.22
562.902	45.32
563.243	45.42
563.584	45.53
563.925	45.62
564.266	45.73
564.607	45.82
564.948	45.92
565.289	46.02
565.63	46.12
565.971	46.22
566.312	46.31
566.653	46.41
566.993	46.49
567.334	46.58
567.675	46.66
568.015	46.74
568.356	46.82
568.696	46.88
569.037	46.95
569.377	47.02
569.718	47.09
570.058	47.16
570.398	47.22
570.739	47.28
571.079	47.34
571.419	47.4
571.759	47.46
572.099	47.52
572.439	47.58
572.779	47.63
573.119	47.69
573.459	47.73
573.799	47.78
574.139	47.83
574.479	47.88
574.819	47.93
575.158	47.99
575.498	48.04
575.838	48.08
576.177	48.12
576.517	48.18
576.856	48.22
577.196	48.28
577.535	48.33
577.875	48.38
578.214	48.42
578.553	48.47
578.893	48.51
579.232	48.54
579.571	48.58
579.91	48.62
580.25	48.67
580.589	48.7
580.928	48.74
581.267	48.78
581.606	48.82
581.945	48.85
582.283	48.89
582.622	48.95
582.961	48.99
583.3	49.04
583.639	49.08
583.977	49.13
584.316	49.18
584.654	49.23
584.993	49.26
585.332	49.31
585.67	49.36
586.008	49.39
586.347	49.44
586.685	49.48
587.024	49.52
587.362	49.59
587.7	49.63
588.038	49.67
588.376	49.72
588.715	49.77
589.053	49.81
589.391	49.85
589.729	49.92
590.067	49.97
590.404	50.01
590.742	50.07
591.08	50.12
591.418	50.16
591.756	50.19
592.093	50.24
592.431	50.27
592.769	50.32
593.106	50.35
593.444	50.38
593.781	50.42
594.119	50.44
594.456	50.48
594.793	50.53
595.131	50.57
595.468	50.61
595.805	50.66
596.143	50.71
596.48	50.74
596.817	50.78
597.154	50.82
597.491	50.87
597.828	50.91
598.165	50.94
598.502	50.98
598.839	51.03
599.176	51.07
599.512	51.1
599.849	51.13
600.186	51.17
600.523	51.21
600.859	51.24
601.196	51.26
601.532	51.29
601.869	51.32
602.205	51.35
602.542	51.38
602.878	51.42
603.215	51.45
603.551	51.47
603.887	51.5
604.223	51.54
604.56	51.55
604.896	51.57
605.232	51.61
605.568	51.63
605.904	51.66
606.24	51.68
606.576	51.69
606.912	51.7
607.248	51.71
607.583	51.74
607.919	51.76
608.255	51.77
608.591	51.79
608.926	51.81
609.262	51.84
609.597	51.85
609.933	51.86
610.268	51.88
610.604	51.9
610.939	51.91
611.275	51.92
611.61	51.94
611.945	51.97
612.281	51.98
612.616	51.99
612.951	52.01
613.286	52.03
613.621	52.05
613.956	52.07
614.291	52.09
614.626	52.11
614.961	52.13
615.296	52.14
615.631	52.16
615.966	52.19
616.3	52.21
616.635	52.22
616.97	52.23
617.304	52.25
617.639	52.28
617.973	52.28
618.308	52.3
618.642	52.32
618.977	52.33
619.311	52.35
619.646	52.35
619.98	52.36
620.314	52.39
620.648	52.42
620.983	52.44
621.317	52.46
621.651	52.48
621.985	52.51
622.319	52.54
622.653	52.56
622.987	52.56
623.321	52.58
623.655	52.6
623.988	52.61
624.322	52.63
624.656	52.67
624.99	52.68
625.323	52.69
625.657	52.71
625.99	52.72
626.324	52.73
626.657	52.74
626.991	52.74
627.324	52.75
627.658	52.77
627.991	52.78
628.324	52.79
628.657	52.81
628.991	52.82
629.324	52.85
629.657	52.85
629.99	52.87
630.323	52.89
630.656	52.9
630.989	52.92
631.322	52.93
631.655	52.96
631.987	52.99
632.32	53.01
632.653	53.04
632.986	53.06
633.318	53.08
633.651	53.12
633.984	53.13
634.316	53.15
634.649	53.17
634.981	53.19
635.313	53.2
635.646	53.21
635.978	53.22
636.31	53.24
636.643	53.26
636.975	53.29
637.307	53.31
637.639	53.33
637.971	53.34
638.303	53.35
638.635	53.38
638.967	53.39
639.299	53.4
639.631	53.43
639.963	53.46
640.295	53.47
640.626	53.5
640.958	53.54
641.29	53.55
641.621	53.57
641.953	53.59
642.285	53.61
642.616	53.64
642.948	53.66
643.279	53.68
643.61	53.68
643.942	53.7
644.273	53.72
644.604	53.73
644.936	53.73
645.267	53.74
645.598	53.74
645.929	53.75
646.26	53.75
646.591	53.77
646.922	53.79
647.253	53.8
647.584	53.81
647.915	53.83
648.245	53.84
648.576	53.86
648.907	53.87
649.238	53.86
649.568	53.87
649.899	53.86
650.229	53.85
650.56	53.85
650.89	53.85
651.221	53.86
651.551	53.86
651.882	53.85
652.212	53.86
652.542	53.88
652.872	53.88
653.203	53.87
653.533	53.89
653.863	53.89
654.193	53.89
654.523	53.88
654.853	53.89
655.183	53.91
655.513	53.92
655.843	53.94
656.172	53.95
656.502	53.94
656.832	53.95
657.162	53.98
657.491	53.99
657.821	54
658.15	54.03
658.48	54.04
658.809	54.04
659.139	54.04
659.468	54.06
659.798	54.07
660.127	54.07
660.456	54.08
660.785	54.09
661.115	54.1
661.444	54.11
661.773	54.14
662.102	54.13
662.431	54.17
662.76	54.2
663.089	54.23
663.418	54.25
663.747	54.27
664.076	54.29
664.404	54.33
664.733	54.35
665.062	54.38
665.39	54.41
665.719	54.42
666.048	54.43
666.376	54.45
666.705	54.47
667.033	54.49
667.362	54.52
667.69	54.54
668.018	54.55
668.347	54.56
668.675	54.57
669.003	54.56
669.331	54.56
669.659	54.56
