Data from UWBM88853_Reflection_00009.txt Node
Date: Sun May 02 13:41:38 EDT 2021
User: vgr7
Spectrometer: USB2G7710
Scans to average: 10
Trigger mode: 4
Integration Time (sec): 1.000000E-1
Electric dark correction enabled: true
Boxcar width: 20
XAxis mode: Wavelengths
Number of Pixels in Spectrum: 2048
>>>>>Begin Spectral Data<<<<<
177.721	91.18
178.105	89.61
178.488	82.89
178.871	184.21
179.254	150
179.636	55.61
180.019	40.74
180.402	37.4
180.785	46.15
181.168	48.57
181.55	43.15
181.933	44.62
182.316	40.55
182.698	38.37
183.081	30.69
183.463	27.83
183.846	20.08
184.228	22.18
184.611	21.43
184.993	20.2
185.376	18.72
185.758	19.99
186.14	24.38
186.522	23.61
186.904	21.56
187.287	21.12
187.669	22.07
188.051	19.63
188.433	19.21
188.815	17.55
189.197	17.22
189.579	20.02
189.961	18.26
190.342	17.4
190.724	16.7
191.106	17.44
191.488	19.62
191.869	17
192.251	15.07
192.633	13.91
193.014	13.73
193.396	12.47
193.777	13.69
194.159	14.69
194.54	13.39
194.922	11.62
195.303	12.18
195.684	11.94
196.065	10.65
196.447	9.75
196.828	8.38
197.209	6.69
197.59	3.54
197.971	3.71
198.352	4.49
198.733	7.06
199.114	7.1
199.495	9
199.876	8.18
200.257	9.24
200.638	9.3
201.018	11.25
201.399	10.85
201.78	9.08
202.16	8.55
202.541	7.47
202.922	6.63
203.302	6.3
203.683	7.59
204.063	8.49
204.444	8.43
204.824	9.32
205.204	8.55
205.585	10.18
205.965	10.88
206.345	10.01
206.725	9.63
207.106	9.71
207.486	10.89
207.866	12.04
208.246	12.23
208.626	11.61
209.006	11.49
209.386	10.59
209.766	9.61
210.145	9.31
210.525	10.05
210.905	11.59
211.285	10.61
211.664	11.77
212.044	11.64
212.424	11.94
212.803	11.92
213.183	12.83
213.562	13.59
213.942	12.38
214.321	10.66
214.701	11.06
215.08	11.23
215.459	11.37
215.838	9.82
216.218	9.55
216.597	8.9
216.976	9.68
217.355	10.07
217.734	10.82
218.113	11.51
218.492	10.94
218.871	11.2
219.25	10.65
219.629	9.9
220.008	10.6
220.387	9.28
220.766	9.69
221.144	7.88
221.523	8.18
221.902	8.89
222.28	8.16
222.659	7.43
223.037	7.3
223.416	7.06
223.794	7.99
224.173	8.38
224.551	7.62
224.929	8.11
225.308	8.62
225.686	8.62
226.064	8.52
226.442	8.02
226.821	9
227.199	9.02
227.577	8.75
227.955	8.77
228.333	9.15
228.711	8.39
229.089	7.56
229.467	7.28
229.845	7.15
230.222	7.22
230.6	7.17
230.978	6.97
231.356	7.2
231.733	7.07
232.111	6.73
232.488	6.39
232.866	6.3
233.243	5.98
233.621	5.8
233.998	6.03
234.376	5.9
234.753	5.51
235.13	5.49
235.508	5.44
235.885	5.35
236.262	5.23
236.639	5.18
237.016	5.06
237.393	4.96
237.77	4.89
238.147	4.92
238.524	4.83
238.901	4.75
239.278	4.68
239.655	4.69
240.032	4.66
240.409	4.62
240.785	4.62
241.162	4.63
241.539	4.55
241.915	4.53
242.292	4.49
242.668	4.46
243.045	4.41
243.421	4.36
243.798	4.34
244.174	4.43
244.551	4.44
244.927	4.46
245.303	4.48
245.679	4.46
246.056	4.37
246.432	4.37
246.808	4.36
247.184	4.38
247.56	4.37
247.936	4.37
248.312	4.36
248.688	4.33
249.064	4.31
249.44	4.32
249.815	4.28
250.191	4.28
250.567	4.29
250.943	4.26
251.318	4.24
251.694	4.25
252.069	4.23
252.445	4.18
252.82	4.19
253.196	4.16
253.571	4.12
253.947	4.1
254.322	4.06
254.697	4.04
255.073	4.01
255.448	4
255.823	3.96
256.198	3.92
256.573	3.88
256.948	3.89
257.323	3.86
257.698	3.81
258.073	3.76
258.448	3.76
258.823	3.75
259.198	3.75
259.573	3.72
259.948	3.74
260.322	3.72
260.697	3.7
261.072	3.69
261.446	3.7
261.821	3.69
262.195	3.68
262.57	3.63
262.944	3.63
263.319	3.63
263.693	3.62
264.067	3.63
264.442	3.62
264.816	3.59
265.19	3.6
265.564	3.6
265.938	3.57
266.313	3.56
266.687	3.55
267.061	3.53
267.435	3.53
267.809	3.54
268.183	3.52
268.556	3.51
268.93	3.53
269.304	3.53
269.678	3.54
270.051	3.52
270.425	3.49
270.799	3.49
271.172	3.49
271.546	3.51
271.919	3.5
272.293	3.5
272.666	3.51
273.04	3.54
273.413	3.58
273.787	3.6
274.16	3.61
274.533	3.6
274.906	3.61
275.279	3.6
275.653	3.6
276.026	3.6
276.399	3.59
276.772	3.61
277.145	3.61
277.518	3.6
277.891	3.62
278.263	3.61
278.636	3.62
279.009	3.62
279.382	3.6
279.755	3.6
280.127	3.61
280.5	3.62
280.872	3.64
281.245	3.63
281.617	3.65
281.99	3.65
282.362	3.64
282.735	3.67
283.107	3.67
283.479	3.67
283.852	3.69
284.224	3.68
284.596	3.68
284.968	3.7
285.34	3.72
285.713	3.73
286.085	3.75
286.457	3.77
286.829	3.76
287.201	3.79
287.572	3.78
287.944	3.77
288.316	3.76
288.688	3.76
289.06	3.76
289.431	3.76
289.803	3.78
290.175	3.79
290.546	3.81
290.918	3.82
291.289	3.84
291.661	3.85
292.032	3.85
292.403	3.87
292.775	3.9
293.146	3.92
293.517	3.93
293.889	3.95
294.26	3.97
294.631	3.98
295.002	4.02
295.373	4.04
295.744	4.05
296.115	4.05
296.486	4.1
296.857	4.12
297.228	4.16
297.599	4.19
297.97	4.2
298.34	4.21
298.711	4.24
299.082	4.24
299.452	4.28
299.823	4.3
300.194	4.33
300.564	4.35
300.935	4.38
301.305	4.4
301.676	4.43
302.046	4.46
302.416	4.49
302.787	4.5
303.157	4.54
303.527	4.58
303.897	4.62
304.267	4.66
304.637	4.69
305.008	4.71
305.378	4.74
305.748	4.78
306.117	4.82
306.487	4.88
306.857	4.93
307.227	4.99
307.597	5.03
307.967	5.05
308.336	5.1
308.706	5.12
309.076	5.15
309.445	5.19
309.815	5.23
310.184	5.27
310.554	5.3
310.923	5.34
311.293	5.38
311.662	5.41
312.031	5.43
312.401	5.47
312.77	5.51
313.139	5.54
313.508	5.59
313.877	5.63
314.246	5.68
314.616	5.71
314.985	5.75
315.353	5.77
315.722	5.8
316.091	5.84
316.46	5.86
316.829	5.89
317.198	5.94
317.567	5.97
317.935	6.03
318.304	6.08
318.672	6.14
319.041	6.17
319.41	6.21
319.778	6.25
320.147	6.3
320.515	6.35
320.883	6.38
321.252	6.4
321.62	6.43
321.988	6.46
322.357	6.48
322.725	6.53
323.093	6.56
323.461	6.57
323.829	6.62
324.197	6.65
324.565	6.67
324.933	6.7
325.301	6.71
325.669	6.73
326.037	6.75
326.405	6.78
326.772	6.8
327.14	6.83
327.508	6.84
327.875	6.85
328.243	6.89
328.61	6.9
328.978	6.92
329.346	6.95
329.713	6.98
330.08	6.99
330.448	7.02
330.815	7.04
331.182	7.07
331.55	7.09
331.917	7.12
332.284	7.13
332.651	7.16
333.018	7.2
333.385	7.21
333.752	7.22
334.119	7.25
334.486	7.28
334.853	7.31
335.22	7.35
335.587	7.38
335.954	7.41
336.32	7.43
336.687	7.43
337.054	7.45
337.42	7.48
337.787	7.5
338.153	7.53
338.52	7.54
338.886	7.56
339.253	7.59
339.619	7.6
339.986	7.63
340.352	7.66
340.718	7.67
341.084	7.69
341.451	7.71
341.817	7.74
342.183	7.77
342.549	7.78
342.915	7.8
343.281	7.81
343.647	7.84
344.013	7.84
344.379	7.86
344.745	7.87
345.11	7.88
345.476	7.9
345.842	7.92
346.208	7.94
346.573	7.94
346.939	7.94
347.304	7.96
347.67	7.97
348.035	7.98
348.401	7.99
348.766	8.01
349.132	8.01
349.497	8.02
349.862	8.02
350.228	8.02
350.593	8.02
350.958	8.02
351.323	8.02
351.688	8.03
352.053	8.03
352.418	8.03
352.783	8.02
353.148	8
353.513	8
353.878	7.99
354.243	7.99
354.608	7.98
354.972	7.97
355.337	7.96
355.702	7.95
356.066	7.94
356.431	7.92
356.795	7.9
357.16	7.87
357.524	7.86
357.889	7.85
358.253	7.84
358.618	7.81
358.982	7.79
359.346	7.78
359.71	7.76
360.075	7.74
360.439	7.72
360.803	7.69
361.167	7.67
361.531	7.65
361.895	7.62
362.259	7.6
362.623	7.57
362.987	7.55
363.351	7.53
363.714	7.5
364.078	7.47
364.442	7.45
364.806	7.41
365.169	7.38
365.533	7.34
365.896	7.3
366.26	7.27
366.623	7.24
366.987	7.2
367.35	7.16
367.714	7.13
368.077	7.09
368.44	7.05
368.803	7.01
369.167	6.96
369.53	6.92
369.893	6.87
370.256	6.81
370.619	6.76
370.982	6.71
371.345	6.67
371.708	6.63
372.071	6.57
372.434	6.52
372.797	6.46
373.159	6.41
373.522	6.37
373.885	6.32
374.247	6.27
374.61	6.22
374.973	6.17
375.335	6.12
375.698	6.08
376.06	6.04
376.423	5.99
376.785	5.95
377.147	5.9
377.51	5.86
377.872	5.81
378.234	5.76
378.596	5.72
378.958	5.67
379.321	5.63
379.683	5.59
380.045	5.55
380.407	5.51
380.769	5.47
381.13	5.43
381.492	5.39
381.854	5.35
382.216	5.32
382.578	5.28
382.939	5.25
383.301	5.2
383.663	5.17
384.024	5.13
384.386	5.1
384.747	5.07
385.109	5.03
385.47	5
385.832	4.96
386.193	4.93
386.554	4.89
386.916	4.87
387.277	4.84
387.638	4.81
387.999	4.79
388.36	4.76
388.721	4.74
389.082	4.71
389.443	4.68
389.804	4.66
390.165	4.64
390.526	4.61
390.887	4.58
391.248	4.55
391.609	4.53
391.969	4.51
392.33	4.48
392.691	4.46
393.051	4.44
393.412	4.42
393.772	4.4
394.133	4.37
394.493	4.34
394.854	4.32
395.214	4.29
395.574	4.26
395.935	4.24
396.295	4.22
396.655	4.19
397.015	4.17
397.376	4.15
397.736	4.13
398.096	4.11
398.456	4.09
398.816	4.07
399.176	4.05
399.535	4.03
399.895	4.01
400.255	3.99
400.615	3.97
400.975	3.95
401.334	3.94
401.694	3.92
402.054	3.91
402.413	3.89
402.773	3.87
403.132	3.86
403.492	3.85
403.851	3.83
404.211	3.82
404.57	3.81
404.929	3.79
405.288	3.79
405.648	3.78
406.007	3.77
406.366	3.76
406.725	3.75
407.084	3.74
407.443	3.73
407.802	3.72
408.161	3.71
408.52	3.7
408.879	3.7
409.238	3.69
409.596	3.69
409.955	3.68
410.314	3.68
410.673	3.67
411.031	3.67
411.39	3.67
411.748	3.66
412.107	3.66
412.465	3.66
412.824	3.67
413.182	3.68
413.54	3.69
413.899	3.71
414.257	3.73
414.615	3.76
414.974	3.77
415.332	3.8
415.69	3.83
416.048	3.84
416.406	3.87
416.764	3.89
417.122	3.91
417.48	3.93
417.838	3.95
418.195	3.96
418.553	3.97
418.911	3.98
419.269	3.99
419.626	3.98
419.984	3.97
420.342	3.95
420.699	3.93
421.057	3.91
421.414	3.89
421.772	3.88
422.129	3.87
422.486	3.86
422.844	3.85
423.201	3.85
423.558	3.84
423.915	3.84
424.273	3.83
424.63	3.83
424.987	3.82
425.344	3.82
425.701	3.81
426.058	3.81
426.415	3.81
426.772	3.8
427.128	3.8
427.485	3.79
427.842	3.77
428.199	3.76
428.555	3.74
428.912	3.72
429.269	3.69
429.625	3.67
429.982	3.64
430.338	3.61
430.695	3.59
431.051	3.56
431.407	3.54
431.764	3.53
432.12	3.51
432.476	3.5
432.832	3.49
433.189	3.49
433.545	3.49
433.901	3.5
434.257	3.51
434.613	3.53
434.969	3.55
435.325	3.58
435.681	3.61
436.036	3.63
436.392	3.64
436.748	3.66
437.104	3.66
437.459	3.68
437.815	3.69
438.171	3.71
438.526	3.73
438.882	3.75
439.237	3.79
439.593	3.82
439.948	3.84
440.304	3.87
440.659	3.89
441.014	3.9
441.369	3.92
441.725	3.94
442.08	3.95
442.435	3.96
442.79	3.97
443.145	3.97
443.5	3.97
443.855	3.97
444.21	3.97
444.565	3.96
444.92	3.95
445.275	3.94
445.629	3.93
445.984	3.92
446.339	3.91
446.693	3.9
447.048	3.89
447.403	3.87
447.757	3.85
448.112	3.84
448.466	3.81
448.82	3.79
449.175	3.77
449.529	3.75
449.883	3.73
450.238	3.71
450.592	3.71
450.946	3.69
451.3	3.69
451.654	3.7
452.008	3.7
452.362	3.7
452.716	3.7
453.07	3.7
453.424	3.69
453.778	3.68
454.132	3.67
454.486	3.67
454.839	3.65
455.193	3.63
455.547	3.62
455.9	3.6
456.254	3.58
456.607	3.56
456.961	3.54
457.314	3.52
457.668	3.51
458.021	3.5
458.375	3.5
458.728	3.5
459.081	3.51
459.434	3.51
459.787	3.52
460.141	3.53
460.494	3.54
460.847	3.55
461.2	3.56
461.553	3.57
461.906	3.57
462.259	3.58
462.611	3.58
462.964	3.59
463.317	3.6
463.67	3.6
464.022	3.61
464.375	3.62
464.728	3.63
465.08	3.63
465.433	3.64
465.785	3.64
466.138	3.64
466.49	3.63
466.843	3.62
467.195	3.6
467.547	3.59
467.899	3.57
468.252	3.55
468.604	3.54
468.956	3.52
469.308	3.52
469.66	3.52
470.012	3.51
470.364	3.52
470.716	3.53
471.068	3.54
471.42	3.56
471.772	3.58
472.123	3.59
472.475	3.6
472.827	3.61
473.178	3.62
473.53	3.62
473.882	3.64
474.233	3.66
474.585	3.69
474.936	3.74
475.288	3.81
475.639	3.9
475.99	4.01
476.342	4.14
476.693	4.27
477.044	4.41
477.395	4.55
477.746	4.7
478.097	4.84
478.448	5
478.8	5.14
479.15	5.27
479.501	5.39
479.852	5.51
480.203	5.62
480.554	5.72
480.905	5.81
481.255	5.9
481.606	5.99
481.957	6.08
482.307	6.16
482.658	6.23
483.009	6.3
483.359	6.37
483.709	6.44
484.06	6.5
484.41	6.57
484.761	6.63
485.111	6.7
485.461	6.75
485.811	6.81
486.162	6.86
486.512	6.9
486.862	6.94
487.212	6.96
487.562	6.98
487.912	6.99
488.262	7
488.612	6.99
488.961	6.98
489.311	6.95
489.661	6.89
490.011	6.83
490.36	6.74
490.71	6.64
491.06	6.54
491.409	6.43
491.759	6.3
492.108	6.18
492.458	6.06
492.807	5.92
493.157	5.79
493.506	5.67
493.855	5.55
494.204	5.44
494.554	5.34
494.903	5.24
495.252	5.16
495.601	5.07
495.95	4.99
496.299	4.92
496.648	4.86
496.997	4.8
497.346	4.74
497.695	4.69
498.043	4.65
498.392	4.61
498.741	4.57
499.09	4.54
499.438	4.51
499.787	4.49
500.135	4.47
500.484	4.47
500.832	4.48
501.181	4.5
501.529	4.53
501.878	4.58
502.226	4.64
502.574	4.7
502.923	4.77
503.271	4.85
503.619	4.93
503.967	5.01
504.315	5.1
504.663	5.19
505.011	5.28
505.359	5.38
505.707	5.48
506.055	5.59
506.403	5.7
506.751	5.81
507.098	5.94
507.446	6.07
507.794	6.2
508.141	6.35
508.489	6.51
508.837	6.67
509.184	6.84
509.531	7.02
509.879	7.22
510.226	7.42
510.574	7.64
510.921	7.87
511.268	8.1
511.616	8.35
511.963	8.6
512.31	8.87
512.657	9.13
513.004	9.39
513.351	9.65
513.698	9.9
514.045	10.14
514.392	10.38
514.739	10.61
515.086	10.83
515.432	11.06
515.779	11.29
516.126	11.54
516.473	11.8
516.819	12.08
517.166	12.38
517.512	12.71
517.859	13.05
518.205	13.42
518.552	13.81
518.898	14.24
519.245	14.71
519.591	15.27
519.937	15.92
520.283	16.67
520.629	17.46
520.976	18.3
521.322	19.17
521.668	20.05
522.014	20.95
522.36	21.84
522.706	22.72
523.052	23.58
523.398	24.4
523.743	25.16
524.089	25.87
524.435	26.54
524.781	27.19
525.126	27.85
525.472	28.49
525.817	29.13
526.163	29.75
526.509	30.35
526.854	30.97
527.199	31.56
527.545	32.16
527.89	32.78
528.235	33.38
528.581	33.96
528.926	34.5
529.271	35.02
529.616	35.51
529.961	35.99
530.306	36.43
530.651	36.84
530.996	37.22
531.341	37.57
531.686	37.91
532.031	38.23
532.376	38.57
532.721	38.94
533.065	39.34
533.41	39.75
533.755	40.12
534.099	40.44
534.444	40.72
534.788	40.97
535.133	41.2
535.477	41.38
535.822	41.54
536.166	41.64
536.51	41.67
536.855	41.64
537.199	41.56
537.543	41.48
537.887	41.44
538.231	41.43
538.576	41.43
538.92	41.41
539.264	41.36
539.608	41.29
539.951	41.2
540.295	41.09
540.639	40.97
540.983	40.81
541.327	40.64
541.671	40.45
542.014	40.3
542.358	40.16
542.701	40.13
543.045	40.15
543.389	40.21
543.732	40.3
544.075	40.4
544.419	40.52
544.762	40.65
545.105	40.79
545.449	40.95
545.792	41.11
546.135	41.27
546.478	41.39
546.821	41.44
547.165	41.42
547.508	41.33
547.851	41.18
548.194	40.99
548.536	40.73
548.879	40.44
549.222	40.11
549.565	39.79
549.908	39.46
550.25	39.17
550.593	38.93
550.936	38.79
551.278	38.7
551.621	38.65
551.963	38.63
552.306	38.63
552.648	38.66
552.991	38.73
553.333	38.82
553.675	38.95
554.017	39.11
554.36	39.3
554.702	39.51
555.044	39.78
555.386	40.09
555.728	40.44
556.07	40.72
556.412	41.02
556.754	41.21
557.096	41.36
557.438	41.52
557.78	41.67
558.121	41.83
558.463	41.99
558.805	42.15
559.147	42.3
559.488	42.46
559.83	42.62
560.171	42.77
560.513	42.9
560.854	43.04
561.196	43.17
561.537	43.31
561.878	43.45
562.22	43.58
562.561	43.7
562.902	43.84
563.243	43.97
563.584	44.09
563.925	44.22
564.266	44.34
564.607	44.47
564.948	44.59
565.289	44.72
565.63	44.84
565.971	44.96
566.312	45.08
566.653	45.2
566.993	45.32
567.334	45.42
567.675	45.54
568.015	45.64
568.356	45.74
568.696	45.84
569.037	45.94
569.377	46.04
569.718	46.13
570.058	46.22
570.398	46.3
570.739	46.38
571.079	46.47
571.419	46.53
571.759	46.6
572.099	46.68
572.439	46.74
572.779	46.8
573.119	46.87
573.459	46.93
573.799	46.98
574.139	47.03
574.479	47.1
574.819	47.16
575.158	47.23
575.498	47.29
575.838	47.34
576.177	47.4
576.517	47.46
576.856	47.51
577.196	47.56
577.535	47.62
577.875	47.67
578.214	47.73
578.553	47.78
578.893	47.83
579.232	47.87
579.571	47.92
579.91	47.96
580.25	48
580.589	48.06
580.928	48.1
581.267	48.15
581.606	48.21
581.945	48.26
582.283	48.32
582.622	48.39
582.961	48.43
583.3	48.48
583.639	48.54
583.977	48.6
584.316	48.66
584.654	48.73
584.993	48.79
585.332	48.86
585.67	48.92
586.008	48.96
586.347	49.02
586.685	49.09
587.024	49.14
587.362	49.2
587.7	49.26
588.038	49.35
588.376	49.41
588.715	49.48
589.053	49.54
589.391	49.62
589.729	49.69
590.067	49.75
590.404	49.82
590.742	49.89
591.08	49.96
591.418	50.03
591.756	50.09
592.093	50.15
592.431	50.21
592.769	50.26
593.106	50.32
593.444	50.37
593.781	50.41
594.119	50.46
594.456	50.5
594.793	50.54
595.131	50.6
595.468	50.64
595.805	50.68
596.143	50.72
596.48	50.77
596.817	50.82
597.154	50.87
597.491	50.94
597.828	50.99
598.165	51.05
598.502	51.1
598.839	51.16
599.176	51.2
599.512	51.25
599.849	51.29
600.186	51.34
600.523	51.38
600.859	51.42
601.196	51.47
601.532	51.51
601.869	51.53
602.205	51.57
602.542	51.6
602.878	51.64
603.215	51.66
603.551	51.68
603.887	51.72
604.223	51.75
604.56	51.78
604.896	51.81
605.232	51.83
605.568	51.85
605.904	51.87
606.24	51.9
606.576	51.92
606.912	51.93
607.248	51.95
607.583	51.98
607.919	52
608.255	52.03
608.591	52.05
608.926	52.08
609.262	52.11
609.597	52.12
609.933	52.14
610.268	52.15
610.604	52.18
610.939	52.19
611.275	52.19
611.61	52.2
611.945	52.21
612.281	52.21
612.616	52.22
612.951	52.23
613.286	52.24
613.621	52.26
613.956	52.27
614.291	52.28
614.626	52.3
614.961	52.3
615.296	52.32
615.631	52.34
615.966	52.36
616.3	52.38
616.635	52.38
616.97	52.41
617.304	52.43
617.639	52.45
617.973	52.45
618.308	52.47
618.642	52.5
618.977	52.52
619.311	52.55
619.646	52.57
619.98	52.58
620.314	52.61
620.648	52.65
620.983	52.68
621.317	52.71
621.651	52.74
621.985	52.76
622.319	52.77
622.653	52.8
622.987	52.82
623.321	52.84
623.655	52.87
623.988	52.89
624.322	52.91
624.656	52.93
624.99	52.95
625.323	52.97
625.657	52.98
625.99	53
626.324	53.02
626.657	53.04
626.991	53.07
627.324	53.1
627.658	53.11
627.991	53.12
628.324	53.14
628.657	53.16
628.991	53.18
629.324	53.19
629.657	53.21
629.99	53.23
630.323	53.25
630.656	53.27
630.989	53.28
631.322	53.29
631.655	53.32
631.987	53.33
632.32	53.34
632.653	53.35
632.986	53.37
633.318	53.39
633.651	53.41
633.984	53.4
634.316	53.41
634.649	53.41
634.981	53.43
635.313	53.43
635.646	53.44
635.978	53.46
636.31	53.46
636.643	53.48
636.975	53.49
637.307	53.5
637.639	53.51
637.971	53.52
638.303	53.53
638.635	53.54
638.967	53.56
639.299	53.56
639.631	53.58
639.963	53.61
640.295	53.64
640.626	53.65
640.958	53.68
641.29	53.7
641.621	53.73
641.953	53.73
642.285	53.76
642.616	53.78
642.948	53.79
643.279	53.81
643.61	53.82
643.942	53.84
644.273	53.85
644.604	53.87
644.936	53.89
645.267	53.9
645.598	53.92
645.929	53.92
646.26	53.93
646.591	53.93
646.922	53.96
647.253	53.97
647.584	54.01
647.915	54.02
648.245	54.03
648.576	54.05
648.907	54.07
649.238	54.07
649.568	54.08
649.899	54.09
650.229	54.1
650.56	54.14
650.89	54.16
651.221	54.16
651.551	54.16
651.882	54.19
652.212	54.21
652.542	54.22
652.872	54.23
653.203	54.25
653.533	54.25
653.863	54.25
654.193	54.26
654.523	54.27
654.853	54.29
655.183	54.3
655.513	54.32
655.843	54.33
656.172	54.36
656.502	54.37
656.832	54.38
657.162	54.4
657.491	54.4
657.821	54.42
658.15	54.44
658.48	54.46
658.809	54.48
659.139	54.49
659.468	54.52
659.798	54.54
660.127	54.56
660.456	54.58
660.785	54.59
661.115	54.6
661.444	54.62
661.773	54.63
662.102	54.64
662.431	54.65
662.76	54.67
663.089	54.71
663.418	54.72
663.747	54.74
664.076	54.73
664.404	54.74
664.733	54.77
665.062	54.79
665.39	54.8
665.719	54.8
666.048	54.82
666.376	54.83
666.705	54.84
667.033	54.85
667.362	54.86
667.69	54.86
668.018	54.88
668.347	54.88
668.675	54.89
669.003	54.9
669.331	54.93
669.659	54.91
669.987	54.91
670.315	54.91
670.643	54.92
670.971	54.93
671.299	54.94
