Data from UWBM59056_Reflection_00009.txt Node
Date: Sun May 02 13:45:14 EDT 2021
User: vgr7
Spectrometer: USB2G7710
Scans to average: 10
Trigger mode: 4
Integration Time (sec): 1.000000E-1
Electric dark correction enabled: true
Boxcar width: 20
XAxis mode: Wavelengths
Number of Pixels in Spectrum: 2048
>>>>>Begin Spectral Data<<<<<
177.721	130.07
178.105	105.08
178.488	125.06
178.871	150
179.254	142.98
179.636	80.27
180.019	50.38
180.402	46.38
180.785	38.19
181.168	38.28
181.55	35.01
181.933	37.25
182.316	37.21
182.698	32.81
183.081	28.12
183.463	25.21
183.846	19.26
184.228	19.4
184.611	20.23
184.993	16.75
185.376	18.93
185.758	21.11
186.14	22.21
186.522	20.29
186.904	20.58
187.287	21.61
187.669	23.94
188.051	20.74
188.433	18.63
188.815	17.31
189.197	18.84
189.579	19.08
189.961	16.09
190.342	17.09
190.724	17.96
191.106	19.08
191.488	21.12
191.869	20.27
192.251	18.86
192.633	16.22
193.014	16.17
193.396	13.05
193.777	13.14
194.159	12.99
194.54	12.06
194.922	11.44
195.303	11.83
195.684	12.59
196.065	12.47
196.447	14.51
196.828	13.02
197.209	13.08
197.59	10.88
197.971	9.02
198.352	10.86
198.733	12.59
199.114	14.19
199.495	16.03
199.876	16.21
200.257	16.42
200.638	17.54
201.018	17.94
201.399	18.29
201.78	17.19
202.16	17.28
202.541	16.29
202.922	15.21
203.302	14.93
203.683	16.9
204.063	18.23
204.444	18.71
204.824	17.35
205.204	15.06
205.585	18.18
205.965	18.29
206.345	17.15
206.725	16.34
207.106	15.55
207.486	15.7
207.866	17.39
208.246	18.89
208.626	17.85
209.006	18.77
209.386	20.27
209.766	19.22
210.145	18.07
210.525	18.17
210.905	18.75
211.285	17.72
211.664	17.56
212.044	15.09
212.424	14.78
212.803	14.52
213.183	13.41
213.562	14.44
213.942	14.08
214.321	13.1
214.701	12.35
215.08	12.6
215.459	11.61
215.838	11.11
216.218	11.19
216.597	10.21
216.976	10.15
217.355	11.54
217.734	10.92
218.113	10.42
218.492	10.64
218.871	9.77
219.25	8.87
219.629	9.62
220.008	8.98
220.387	8.21
220.766	9.59
221.144	8.68
221.523	9.1
221.902	9.77
222.28	9.1
222.659	9.18
223.037	8.67
223.416	8.14
223.794	7.72
224.173	8.11
224.551	7.51
224.929	7.82
225.308	7.55
225.686	7.67
226.064	7.42
226.442	7.33
226.821	7.99
227.199	8.2
227.577	8.38
227.955	8.35
228.333	7.97
228.711	7.85
229.089	7.48
229.467	7.24
229.845	7.43
230.222	7.29
230.6	6.87
230.978	6.58
231.356	6.54
231.733	6.49
232.111	6.23
232.488	6.14
232.866	5.6
233.243	5.51
233.621	5.68
233.998	5.58
234.376	5.55
234.753	5.09
235.13	4.87
235.508	4.92
235.885	4.97
236.262	4.86
236.639	4.76
237.016	4.57
237.393	4.58
237.77	4.51
238.147	4.43
238.524	4.43
238.901	4.35
239.278	4.39
239.655	4.31
240.032	4.35
240.409	4.35
240.785	4.46
241.162	4.45
241.539	4.47
241.915	4.49
242.292	4.47
242.668	4.46
243.045	4.44
243.421	4.44
243.798	4.49
244.174	4.52
244.551	4.49
244.927	4.48
245.303	4.44
245.679	4.43
246.056	4.42
246.432	4.47
246.808	4.46
247.184	4.48
247.56	4.48
247.936	4.45
248.312	4.46
248.688	4.45
249.064	4.4
249.44	4.39
249.815	4.36
250.191	4.36
250.567	4.38
250.943	4.34
251.318	4.32
251.694	4.33
252.069	4.35
252.445	4.38
252.82	4.32
253.196	4.29
253.571	4.26
253.947	4.25
254.322	4.25
254.697	4.22
255.073	4.2
255.448	4.18
255.823	4.13
256.198	4.1
256.573	4.09
256.948	4.07
257.323	4.03
257.698	3.99
258.073	3.95
258.448	3.92
258.823	3.92
259.198	3.89
259.573	3.88
259.948	3.9
260.322	3.88
260.697	3.89
261.072	3.86
261.446	3.85
261.821	3.84
262.195	3.82
262.57	3.79
262.944	3.78
263.319	3.8
263.693	3.81
264.067	3.78
264.442	3.76
264.816	3.74
265.19	3.74
265.564	3.77
265.938	3.74
266.313	3.76
266.687	3.75
267.061	3.74
267.435	3.73
267.809	3.69
268.183	3.7
268.556	3.73
268.93	3.74
269.304	3.75
269.678	3.75
270.051	3.73
270.425	3.72
270.799	3.71
271.172	3.72
271.546	3.72
271.919	3.73
272.293	3.72
272.666	3.73
273.04	3.75
273.413	3.79
273.787	3.81
274.16	3.8
274.533	3.8
274.906	3.8
275.279	3.8
275.653	3.81
276.026	3.79
276.399	3.79
276.772	3.81
277.145	3.8
277.518	3.81
277.891	3.81
278.263	3.81
278.636	3.81
279.009	3.8
279.382	3.82
279.755	3.84
280.127	3.85
280.5	3.86
280.872	3.84
281.245	3.85
281.617	3.83
281.99	3.84
282.362	3.83
282.735	3.83
283.107	3.84
283.479	3.83
283.852	3.84
284.224	3.84
284.596	3.83
284.968	3.83
285.34	3.83
285.713	3.86
286.085	3.88
286.457	3.89
286.829	3.87
287.201	3.87
287.572	3.88
287.944	3.88
288.316	3.87
288.688	3.87
289.06	3.87
289.431	3.89
289.803	3.91
290.175	3.93
290.546	3.94
290.918	3.96
291.289	3.99
291.661	4.01
292.032	4.02
292.403	4.03
292.775	4.06
293.146	4.08
293.517	4.11
293.889	4.13
294.26	4.17
294.631	4.18
295.002	4.22
295.373	4.25
295.744	4.28
296.115	4.3
296.486	4.34
296.857	4.37
297.228	4.4
297.599	4.44
297.97	4.46
298.34	4.5
298.711	4.54
299.082	4.57
299.452	4.6
299.823	4.63
300.194	4.68
300.564	4.72
300.935	4.75
301.305	4.78
301.676	4.81
302.046	4.88
302.416	4.92
302.787	4.96
303.157	5
303.527	5.06
303.897	5.11
304.267	5.16
304.637	5.23
305.008	5.28
305.378	5.34
305.748	5.41
306.117	5.46
306.487	5.52
306.857	5.59
307.227	5.66
307.597	5.72
307.967	5.77
308.336	5.82
308.706	5.87
309.076	5.9
309.445	5.97
309.815	6.01
310.184	6.05
310.554	6.11
310.923	6.17
311.293	6.23
311.662	6.29
312.031	6.35
312.401	6.42
312.77	6.48
313.139	6.57
313.508	6.63
313.877	6.68
314.246	6.73
314.616	6.78
314.985	6.85
315.353	6.91
315.722	6.97
316.091	7.04
316.46	7.1
316.829	7.17
317.198	7.24
317.567	7.31
317.935	7.39
318.304	7.46
318.672	7.55
319.041	7.64
319.41	7.71
319.778	7.78
320.147	7.84
320.515	7.91
320.883	7.95
321.252	8.03
321.62	8.08
321.988	8.15
322.357	8.21
322.725	8.28
323.093	8.35
323.461	8.4
323.829	8.47
324.197	8.53
324.565	8.55
324.933	8.63
325.301	8.69
325.669	8.75
326.037	8.79
326.405	8.85
326.772	8.89
327.14	8.93
327.508	8.98
327.875	9.03
328.243	9.06
328.61	9.1
328.978	9.14
329.346	9.19
329.713	9.24
330.08	9.29
330.448	9.32
330.815	9.36
331.182	9.4
331.55	9.45
331.917	9.49
332.284	9.53
332.651	9.59
333.018	9.64
333.385	9.71
333.752	9.75
334.119	9.79
334.486	9.85
334.853	9.91
335.22	9.96
335.587	10.02
335.954	10.09
336.32	10.13
336.687	10.18
337.054	10.22
337.42	10.28
337.787	10.33
338.153	10.38
338.52	10.43
338.886	10.47
339.253	10.52
339.619	10.58
339.986	10.62
340.352	10.66
340.718	10.7
341.084	10.74
341.451	10.78
341.817	10.82
342.183	10.87
342.549	10.9
342.915	10.95
343.281	10.98
343.647	11.02
344.013	11.06
344.379	11.09
344.745	11.13
345.11	11.16
345.476	11.21
345.842	11.24
346.208	11.28
346.573	11.3
346.939	11.33
347.304	11.36
347.67	11.38
348.035	11.41
348.401	11.43
348.766	11.47
349.132	11.5
349.497	11.53
349.862	11.55
350.228	11.57
350.593	11.6
350.958	11.62
351.323	11.65
351.688	11.66
352.053	11.67
352.418	11.68
352.783	11.68
353.148	11.69
353.513	11.7
353.878	11.71
354.243	11.71
354.608	11.71
354.972	11.73
355.337	11.74
355.702	11.74
356.066	11.75
356.431	11.75
356.795	11.75
357.16	11.74
357.524	11.75
357.889	11.74
358.253	11.74
358.618	11.73
358.982	11.73
359.346	11.72
359.71	11.71
360.075	11.72
360.439	11.71
360.803	11.7
361.167	11.69
361.531	11.69
361.895	11.67
362.259	11.65
362.623	11.63
362.987	11.61
363.351	11.59
363.714	11.56
364.078	11.54
364.442	11.51
364.806	11.49
365.169	11.45
365.533	11.43
365.896	11.39
366.26	11.36
366.623	11.32
366.987	11.28
367.35	11.23
367.714	11.2
368.077	11.16
368.44	11.12
368.803	11.06
369.167	11.02
369.53	10.96
369.893	10.9
370.256	10.83
370.619	10.78
370.982	10.72
371.345	10.65
371.708	10.58
372.071	10.52
372.434	10.45
372.797	10.39
373.159	10.32
373.522	10.26
373.885	10.19
374.247	10.13
374.61	10.06
374.973	9.98
375.335	9.9
375.698	9.83
376.06	9.76
376.423	9.68
376.785	9.62
377.147	9.55
377.51	9.48
377.872	9.41
378.234	9.33
378.596	9.27
378.958	9.2
379.321	9.13
379.683	9.07
380.045	9
380.407	8.94
380.769	8.87
381.13	8.81
381.492	8.75
381.854	8.69
382.216	8.64
382.578	8.58
382.939	8.52
383.301	8.47
383.663	8.41
384.024	8.35
384.386	8.29
384.747	8.24
385.109	8.19
385.47	8.12
385.832	8.07
386.193	8.01
386.554	7.95
386.916	7.9
387.277	7.85
387.638	7.8
387.999	7.75
388.36	7.7
388.721	7.66
389.082	7.61
389.443	7.57
389.804	7.52
390.165	7.48
390.526	7.44
390.887	7.39
391.248	7.35
391.609	7.3
391.969	7.26
392.33	7.22
392.691	7.18
393.051	7.13
393.412	7.08
393.772	7.04
394.133	6.99
394.493	6.94
394.854	6.89
395.214	6.84
395.574	6.8
395.935	6.75
396.295	6.7
396.655	6.65
397.015	6.6
397.376	6.56
397.736	6.51
398.096	6.46
398.456	6.42
398.816	6.38
399.176	6.33
399.535	6.29
399.895	6.25
400.255	6.21
400.615	6.17
400.975	6.13
401.334	6.09
401.694	6.05
402.054	6.02
402.413	5.98
402.773	5.94
403.132	5.91
403.492	5.88
403.851	5.85
404.211	5.82
404.57	5.79
404.929	5.76
405.288	5.74
405.648	5.72
406.007	5.7
406.366	5.68
406.725	5.65
407.084	5.63
407.443	5.61
407.802	5.59
408.161	5.57
408.52	5.55
408.879	5.54
409.238	5.52
409.596	5.51
409.955	5.49
410.314	5.48
410.673	5.46
411.031	5.45
411.39	5.44
411.748	5.42
412.107	5.41
412.465	5.4
412.824	5.41
413.182	5.41
413.54	5.42
413.899	5.43
414.257	5.45
414.615	5.48
414.974	5.5
415.332	5.52
415.69	5.55
416.048	5.56
416.406	5.59
416.764	5.61
417.122	5.62
417.48	5.64
417.838	5.65
418.195	5.66
418.553	5.67
418.911	5.66
419.269	5.65
419.626	5.63
419.984	5.61
420.342	5.57
420.699	5.54
421.057	5.5
421.414	5.47
421.772	5.44
422.129	5.42
422.486	5.4
422.844	5.39
423.201	5.37
423.558	5.35
423.915	5.34
424.273	5.33
424.63	5.31
424.987	5.3
425.344	5.29
425.701	5.27
426.058	5.25
426.415	5.24
426.772	5.22
427.128	5.21
427.485	5.18
427.842	5.16
428.199	5.12
428.555	5.09
428.912	5.06
429.269	5.02
429.625	4.98
429.982	4.94
430.338	4.9
430.695	4.86
431.051	4.82
431.407	4.79
431.764	4.76
432.12	4.73
432.476	4.71
432.832	4.7
433.189	4.69
433.545	4.7
433.901	4.71
434.257	4.73
434.613	4.76
434.969	4.78
435.325	4.81
435.681	4.86
436.036	4.88
436.392	4.9
436.748	4.92
437.104	4.93
437.459	4.95
437.815	4.97
438.171	4.99
438.526	5.01
438.882	5.05
439.237	5.09
439.593	5.12
439.948	5.16
440.304	5.19
440.659	5.22
441.014	5.24
441.369	5.27
441.725	5.28
442.08	5.3
442.435	5.31
442.79	5.31
443.145	5.31
443.5	5.31
443.855	5.3
444.21	5.29
444.565	5.28
444.92	5.27
445.275	5.25
445.629	5.23
445.984	5.21
446.339	5.2
446.693	5.18
447.048	5.15
447.403	5.13
447.757	5.09
448.112	5.06
448.466	5.03
448.82	5
449.175	4.96
449.529	4.94
449.883	4.91
450.238	4.88
450.592	4.86
450.946	4.84
451.3	4.83
451.654	4.83
452.008	4.82
452.362	4.82
452.716	4.81
453.07	4.81
453.424	4.79
453.778	4.78
454.132	4.76
454.486	4.74
454.839	4.71
455.193	4.69
455.547	4.67
455.9	4.63
456.254	4.61
456.607	4.58
456.961	4.55
457.314	4.52
457.668	4.52
458.021	4.51
458.375	4.51
458.728	4.51
459.081	4.52
459.434	4.53
459.787	4.55
460.141	4.57
460.494	4.58
460.847	4.6
461.2	4.61
461.553	4.63
461.906	4.64
462.259	4.66
462.611	4.67
462.964	4.69
463.317	4.7
463.67	4.72
464.022	4.73
464.375	4.75
464.728	4.76
465.08	4.78
465.433	4.8
465.785	4.81
466.138	4.81
466.49	4.8
466.843	4.8
467.195	4.79
467.547	4.79
467.899	4.78
468.252	4.77
468.604	4.76
468.956	4.75
469.308	4.75
469.66	4.77
470.012	4.78
470.364	4.8
470.716	4.82
471.068	4.85
471.42	4.89
471.772	4.93
472.123	4.95
472.475	4.98
472.827	5
473.178	5.02
473.53	5.03
473.882	5.06
474.233	5.09
474.585	5.13
474.936	5.21
475.288	5.31
475.639	5.44
475.99	5.6
476.342	5.76
476.693	5.95
477.044	6.13
477.395	6.32
477.746	6.52
478.097	6.71
478.448	6.9
478.8	7.09
479.15	7.26
479.501	7.42
479.852	7.56
480.203	7.7
480.554	7.83
480.905	7.95
481.255	8.06
481.606	8.17
481.957	8.27
482.307	8.36
482.658	8.45
483.009	8.54
483.359	8.63
483.709	8.71
484.06	8.78
484.41	8.86
484.761	8.93
485.111	9
485.461	9.07
485.811	9.13
486.162	9.18
486.512	9.23
486.862	9.27
487.212	9.3
487.562	9.31
487.912	9.32
488.262	9.33
488.612	9.32
488.961	9.3
489.311	9.25
489.661	9.18
490.011	9.08
490.36	8.97
490.71	8.84
491.06	8.7
491.409	8.55
491.759	8.39
492.108	8.23
492.458	8.07
492.807	7.9
493.157	7.73
493.506	7.58
493.855	7.44
494.204	7.31
494.554	7.18
494.903	7.08
495.252	6.98
495.601	6.89
495.95	6.81
496.299	6.74
496.648	6.68
496.997	6.63
497.346	6.59
497.695	6.54
498.043	6.51
498.392	6.49
498.741	6.47
499.09	6.46
499.438	6.46
499.787	6.48
500.135	6.5
500.484	6.53
500.832	6.59
501.181	6.66
501.529	6.75
501.878	6.87
502.226	7
502.574	7.13
502.923	7.28
503.271	7.45
503.619	7.61
503.967	7.79
504.315	7.97
504.663	8.15
505.011	8.35
505.359	8.55
505.707	8.75
506.055	8.96
506.403	9.19
506.751	9.42
507.098	9.66
507.446	9.91
507.794	10.17
508.141	10.45
508.489	10.74
508.837	11.04
509.184	11.34
509.531	11.66
509.879	11.99
510.226	12.35
510.574	12.71
510.921	13.09
511.268	13.48
511.616	13.89
511.963	14.31
512.31	14.74
512.657	15.17
513.004	15.59
513.351	16
513.698	16.4
514.045	16.77
514.392	17.13
514.739	17.48
515.086	17.82
515.432	18.16
515.779	18.5
516.126	18.86
516.473	19.25
516.819	19.65
517.166	20.07
517.512	20.52
517.859	21
518.205	21.51
518.552	22.05
518.898	22.62
519.245	23.27
519.591	24.02
519.937	24.89
520.283	25.87
520.629	26.93
520.976	28.03
521.322	29.16
521.668	30.31
522.014	31.45
522.36	32.59
522.706	33.71
523.052	34.8
523.398	35.83
523.743	36.79
524.089	37.65
524.435	38.46
524.781	39.25
525.126	40.02
525.472	40.77
525.817	41.5
526.163	42.21
526.509	42.89
526.854	43.58
527.199	44.25
527.545	44.91
527.89	45.6
528.235	46.27
528.581	46.9
528.926	47.5
529.271	48.06
529.616	48.59
529.961	49.09
530.306	49.53
530.651	49.93
530.996	50.3
531.341	50.63
531.686	50.93
532.031	51.2
532.376	51.49
532.721	51.8
533.065	52.15
533.41	52.49
533.755	52.77
534.099	52.99
534.444	53.13
534.788	53.22
535.133	53.28
535.477	53.3
535.822	53.27
536.166	53.19
536.51	53.02
536.855	52.77
537.199	52.48
537.543	52.19
537.887	51.94
538.231	51.75
538.576	51.57
538.92	51.38
539.264	51.17
539.608	50.92
539.951	50.65
540.295	50.36
540.639	50.07
540.983	49.74
541.327	49.38
541.671	49.03
542.014	48.72
542.358	48.45
542.701	48.31
543.045	48.23
543.389	48.19
543.732	48.17
544.075	48.19
544.419	48.22
544.762	48.27
545.105	48.33
545.449	48.41
545.792	48.5
546.135	48.6
546.478	48.63
546.821	48.59
547.165	48.47
547.508	48.26
547.851	48
548.194	47.67
548.536	47.28
548.879	46.83
549.222	46.36
549.565	45.88
549.908	45.4
550.25	44.95
550.593	44.58
550.936	44.3
551.278	44.1
551.621	43.95
551.963	43.84
552.306	43.74
552.648	43.7
552.991	43.69
553.333	43.71
553.675	43.77
554.017	43.88
554.36	44
554.702	44.17
555.044	44.38
555.386	44.65
555.728	44.94
556.07	45.17
556.412	45.41
556.754	45.52
557.096	45.63
557.438	45.73
557.78	45.84
558.121	45.93
558.463	46.03
558.805	46.13
559.147	46.23
559.488	46.33
559.83	46.43
560.171	46.52
560.513	46.62
560.854	46.7
561.196	46.79
561.537	46.88
561.878	46.96
562.22	47.05
562.561	47.13
562.902	47.22
563.243	47.3
563.584	47.39
563.925	47.46
564.266	47.54
564.607	47.64
564.948	47.72
565.289	47.81
565.63	47.9
565.971	47.99
566.312	48.07
566.653	48.15
566.993	48.22
567.334	48.29
567.675	48.36
568.015	48.43
568.356	48.5
568.696	48.56
569.037	48.62
569.377	48.68
569.718	48.75
570.058	48.8
570.398	48.85
570.739	48.89
571.079	48.93
571.419	48.97
571.759	49.01
572.099	49.06
572.439	49.1
572.779	49.12
573.119	49.16
573.459	49.19
573.799	49.23
574.139	49.26
574.479	49.29
574.819	49.32
575.158	49.35
575.498	49.38
575.838	49.4
576.177	49.42
576.517	49.44
576.856	49.47
577.196	49.51
577.535	49.53
577.875	49.56
578.214	49.58
578.553	49.6
578.893	49.62
579.232	49.63
579.571	49.65
579.91	49.66
580.25	49.68
580.589	49.69
580.928	49.72
581.267	49.73
581.606	49.76
581.945	49.78
582.283	49.79
582.622	49.81
582.961	49.84
583.3	49.87
583.639	49.9
583.977	49.92
584.316	49.96
584.654	49.99
584.993	50.04
585.332	50.07
585.67	50.1
586.008	50.13
586.347	50.17
586.685	50.21
587.024	50.24
587.362	50.29
587.7	50.32
588.038	50.36
588.376	50.4
588.715	50.45
589.053	50.49
589.391	50.54
589.729	50.61
590.067	50.67
590.404	50.73
590.742	50.77
591.08	50.8
591.418	50.85
591.756	50.89
592.093	50.94
592.431	50.98
592.769	51.01
593.106	51.04
593.444	51.07
593.781	51.1
594.119	51.12
594.456	51.15
594.793	51.17
595.131	51.22
595.468	51.25
595.805	51.27
596.143	51.31
596.48	51.35
596.817	51.39
597.154	51.42
597.491	51.45
597.828	51.49
598.165	51.52
598.502	51.56
598.839	51.59
599.176	51.63
599.512	51.66
599.849	51.69
600.186	51.71
600.523	51.74
600.859	51.76
601.196	51.78
601.532	51.81
601.869	51.83
602.205	51.85
602.542	51.88
602.878	51.9
603.215	51.92
603.551	51.93
603.887	51.94
604.223	51.97
604.56	51.98
604.896	52.01
605.232	52.01
605.568	52.03
605.904	52.03
606.24	52.04
606.576	52.06
606.912	52.07
607.248	52.08
607.583	52.09
607.919	52.12
608.255	52.13
608.591	52.15
608.926	52.16
609.262	52.16
609.597	52.18
609.933	52.17
610.268	52.17
610.604	52.17
610.939	52.16
611.275	52.16
611.61	52.16
611.945	52.16
612.281	52.16
612.616	52.16
612.951	52.17
613.286	52.17
613.621	52.16
613.956	52.18
614.291	52.18
614.626	52.19
614.961	52.19
615.296	52.19
615.631	52.19
615.966	52.2
616.3	52.21
616.635	52.2
616.97	52.2
617.304	52.2
617.639	52.22
617.973	52.2
618.308	52.21
618.642	52.22
618.977	52.22
619.311	52.23
619.646	52.24
619.98	52.27
620.314	52.28
620.648	52.3
620.983	52.32
621.317	52.34
621.651	52.34
621.985	52.37
622.319	52.38
622.653	52.4
622.987	52.41
623.321	52.43
623.655	52.44
623.988	52.46
624.322	52.48
624.656	52.51
624.99	52.52
625.323	52.53
625.657	52.55
625.99	52.56
626.324	52.57
626.657	52.58
626.991	52.58
627.324	52.59
627.658	52.61
627.991	52.63
628.324	52.63
628.657	52.64
628.991	52.65
629.324	52.67
629.657	52.67
629.99	52.68
630.323	52.69
630.656	52.7
630.989	52.71
631.322	52.71
631.655	52.72
631.987	52.73
632.32	52.75
632.653	52.76
632.986	52.78
633.318	52.78
633.651	52.78
633.984	52.78
634.316	52.79
634.649	52.8
634.981	52.8
635.313	52.81
635.646	52.82
635.978	52.82
636.31	52.83
636.643	52.85
636.975	52.86
637.307	52.88
637.639	52.89
637.971	52.88
638.303	52.89
638.635	52.9
638.967	52.92
639.299	52.94
639.631	52.94
639.963	52.96
640.295	52.97
640.626	52.98
640.958	53.01
641.29	53.02
641.621	53.01
641.953	53.03
642.285	53.04
642.616	53.07
642.948	53.09
643.279	53.11
643.61	53.12
643.942	53.14
644.273	53.17
644.604	53.2
644.936	53.22
645.267	53.24
645.598	53.25
645.929	53.25
646.26	53.27
646.591	53.28
646.922	53.3
647.253	53.32
647.584	53.32
647.915	53.34
648.245	53.36
648.576	53.37
648.907	53.38
649.238	53.39
649.568	53.41
649.899	53.42
650.229	53.42
650.56	53.43
650.89	53.44
651.221	53.47
651.551	53.48
651.882	53.49
652.212	53.49
652.542	53.51
652.872	53.52
653.203	53.52
653.533	53.53
653.863	53.54
654.193	53.55
654.523	53.57
654.853	53.58
655.183	53.6
655.513	53.6
655.843	53.62
656.172	53.62
656.502	53.63
656.832	53.63
657.162	53.65
657.491	53.66
657.821	53.65
658.15	53.66
658.48	53.66
658.809	53.64
659.139	53.65
659.468	53.66
659.798	53.66
660.127	53.65
660.456	53.65
660.785	53.67
661.115	53.67
661.444	53.68
661.773	53.68
662.102	53.69
662.431	53.7
662.76	53.73
663.089	53.73
663.418	53.74
663.747	53.74
664.076	53.75
664.404	53.76
664.733	53.76
665.062	53.78
665.39	53.8
665.719	53.81
666.048	53.82
666.376	53.83
666.705	53.86
667.033	53.86
667.362	53.86
