Data from UWBM55954_Reflection_00003.txt Node
Date: Sun May 02 13:50:36 EDT 2021
User: vgr7
Spectrometer: USB2G7710
Scans to average: 10
Trigger mode: 4
Integration Time (sec): 1.000000E-1
Electric dark correction enabled: true
Boxcar width: 20
XAxis mode: Wavelengths
Number of Pixels in Spectrum: 2048
>>>>>Begin Spectral Data<<<<<
177.721	112.63
178.105	195.81
178.488	155.87
178.871	157.69
179.254	148.11
179.636	131.85
180.019	96.72
180.402	74.98
180.785	60.06
181.168	49.04
181.55	36.08
181.933	39.7
182.316	33.52
182.698	32.68
183.081	24.92
183.463	18.24
183.846	22.15
184.228	26.22
184.611	23
184.993	25.37
185.376	29.25
185.758	28.82
186.14	30.02
186.522	26.75
186.904	26.74
187.287	26.16
187.669	26.88
188.051	27.59
188.433	29.28
188.815	22.3
189.197	22.11
189.579	21.57
189.961	20.01
190.342	15.31
190.724	15.17
191.106	15.64
191.488	16.48
191.869	15.77
192.251	13.72
192.633	13.5
193.014	12.4
193.396	9.46
193.777	8.74
194.159	6.68
194.54	5.29
194.922	1.46
195.303	-0.7
195.684	-1.8
196.065	-0.29
196.447	0.28
196.828	-0.38
197.209	0.71
197.59	-3.27
197.971	-3.02
198.352	-1.03
198.733	1.72
199.114	3.94
199.495	3.8
199.876	2.19
200.257	1.8
200.638	-1.38
201.018	-1.53
201.399	-0.89
201.78	-1.74
202.16	-0.88
202.541	-1.71
202.922	-2.93
203.302	-2.54
203.683	-1.23
204.063	-1.29
204.444	-0.26
204.824	-0.76
205.204	-1.27
205.585	0.52
205.965	1.9
206.345	0.52
206.725	0.78
207.106	0.64
207.486	0.03
207.866	1.44
208.246	0.23
208.626	0.37
209.006	1.27
209.386	0.29
209.766	0.16
210.145	0.75
210.525	2.49
210.905	5.21
211.285	3.91
211.664	4.49
212.044	4.74
212.424	3.96
212.803	4.44
213.183	5.57
213.562	7.25
213.942	6.26
214.321	5.76
214.701	4.12
215.08	3.63
215.459	3.55
215.838	3.83
216.218	4.39
216.597	2.46
216.976	3.18
217.355	3.5
217.734	3.62
218.113	4.19
218.492	4.52
218.871	4.07
219.25	4.13
219.629	4.5
220.008	4.96
220.387	4.5
220.766	6.14
221.144	5.84
221.523	5.54
221.902	6.27
222.28	6.3
222.659	6.62
223.037	6.98
223.416	7
223.794	7.06
224.173	6.8
224.551	5.97
224.929	6.9
225.308	6.97
225.686	6.98
226.064	6.67
226.442	6.1
226.821	6.66
227.199	6.52
227.577	6.36
227.955	7.01
228.333	6.79
228.711	6.55
229.089	5.77
229.467	5.52
229.845	5.31
230.222	5.63
230.6	5.7
230.978	5.92
231.356	6.28
231.733	6.13
232.111	6.29
232.488	6.08
232.866	5.88
233.243	5.81
233.621	5.54
233.998	5.69
234.376	5.91
234.753	5.6
235.13	5.59
235.508	5.5
235.885	5.38
236.262	5.19
236.639	5.09
237.016	5.15
237.393	5.15
237.77	5.06
238.147	4.98
238.524	4.96
238.901	4.85
239.278	4.92
239.655	4.94
240.032	4.95
240.409	4.9
240.785	4.93
241.162	4.94
241.539	4.91
241.915	4.91
242.292	4.9
242.668	4.91
243.045	4.88
243.421	4.84
243.798	4.84
244.174	4.86
244.551	4.92
244.927	4.89
245.303	4.9
245.679	4.91
246.056	4.84
246.432	4.8
246.808	4.73
247.184	4.76
247.56	4.74
247.936	4.73
248.312	4.72
248.688	4.7
249.064	4.69
249.44	4.67
249.815	4.6
250.191	4.56
250.567	4.56
250.943	4.55
251.318	4.55
251.694	4.55
252.069	4.55
252.445	4.54
252.82	4.53
253.196	4.51
253.571	4.49
253.947	4.49
254.322	4.48
254.697	4.45
255.073	4.43
255.448	4.44
255.823	4.41
256.198	4.39
256.573	4.36
256.948	4.36
257.323	4.32
257.698	4.28
258.073	4.23
258.448	4.21
258.823	4.21
259.198	4.19
259.573	4.15
259.948	4.13
260.322	4.14
260.697	4.12
261.072	4.09
261.446	4.11
261.821	4.11
262.195	4.11
262.57	4.09
262.944	4.09
263.319	4.1
263.693	4.1
264.067	4.1
264.442	4.09
264.816	4.07
265.19	4.1
265.564	4.11
265.938	4.09
266.313	4.09
266.687	4.08
267.061	4.07
267.435	4.07
267.809	4.07
268.183	4.05
268.556	4.05
268.93	4.07
269.304	4.06
269.678	4.06
270.051	4.06
270.425	4.05
270.799	4.04
271.172	4.05
271.546	4.04
271.919	4.05
272.293	4.04
272.666	4.05
273.04	4.07
273.413	4.11
273.787	4.12
274.16	4.12
274.533	4.13
274.906	4.14
275.279	4.14
275.653	4.14
276.026	4.15
276.399	4.15
276.772	4.16
277.145	4.14
277.518	4.14
277.891	4.15
278.263	4.13
278.636	4.14
279.009	4.13
279.382	4.13
279.755	4.14
280.127	4.15
280.5	4.14
280.872	4.15
281.245	4.16
281.617	4.16
281.99	4.16
282.362	4.15
282.735	4.14
283.107	4.12
283.479	4.12
283.852	4.12
284.224	4.11
284.596	4.1
284.968	4.09
285.34	4.11
285.713	4.11
286.085	4.13
286.457	4.12
286.829	4.12
287.201	4.12
287.572	4.12
287.944	4.11
288.316	4.09
288.688	4.07
289.06	4.07
289.431	4.05
289.803	4.06
290.175	4.07
290.546	4.06
290.918	4.06
291.289	4.06
291.661	4.06
292.032	4.06
292.403	4.07
292.775	4.07
293.146	4.07
293.517	4.09
293.889	4.08
294.26	4.1
294.631	4.11
295.002	4.11
295.373	4.13
295.744	4.11
296.115	4.1
296.486	4.11
296.857	4.12
297.228	4.12
297.599	4.15
297.97	4.15
298.34	4.15
298.711	4.17
299.082	4.16
299.452	4.16
299.823	4.16
300.194	4.16
300.564	4.15
300.935	4.15
301.305	4.14
301.676	4.14
302.046	4.14
302.416	4.13
302.787	4.12
303.157	4.13
303.527	4.13
303.897	4.13
304.267	4.13
304.637	4.12
305.008	4.12
305.378	4.11
305.748	4.11
306.117	4.11
306.487	4.12
306.857	4.13
307.227	4.13
307.597	4.13
307.967	4.12
308.336	4.13
308.706	4.12
309.076	4.11
309.445	4.1
309.815	4.08
310.184	4.08
310.554	4.07
310.923	4.09
311.293	4.09
311.662	4.07
312.031	4.05
312.401	4.05
312.77	4.03
313.139	4.03
313.508	4.04
313.877	4.04
314.246	4.04
314.616	4.05
314.985	4.05
315.353	4.05
315.722	4.04
316.091	4.04
316.46	4.03
316.829	4.04
317.198	4.04
317.567	4.04
317.935	4.05
318.304	4.05
318.672	4.05
319.041	4.06
319.41	4.05
319.778	4.06
320.147	4.04
320.515	4.03
320.883	4.02
321.252	4.01
321.62	4
321.988	3.99
322.357	3.98
322.725	3.99
323.093	3.98
323.461	3.96
323.829	3.96
324.197	3.94
324.565	3.94
324.933	3.95
325.301	3.93
325.669	3.93
326.037	3.9
326.405	3.91
326.772	3.92
327.14	3.9
327.508	3.89
327.875	3.89
328.243	3.88
328.61	3.87
328.978	3.85
329.346	3.86
329.713	3.86
330.08	3.85
330.448	3.84
330.815	3.84
331.182	3.83
331.55	3.84
331.917	3.83
332.284	3.8
332.651	3.8
333.018	3.8
333.385	3.78
333.752	3.78
334.119	3.77
334.486	3.78
334.853	3.78
335.22	3.78
335.587	3.78
335.954	3.78
336.32	3.78
336.687	3.78
337.054	3.78
337.42	3.78
337.787	3.77
338.153	3.78
338.52	3.78
338.886	3.77
339.253	3.78
339.619	3.78
339.986	3.78
340.352	3.78
340.718	3.78
341.084	3.79
341.451	3.79
341.817	3.79
342.183	3.8
342.549	3.8
342.915	3.8
343.281	3.81
343.647	3.81
344.013	3.81
344.379	3.8
344.745	3.8
345.11	3.81
345.476	3.82
345.842	3.82
346.208	3.82
346.573	3.81
346.939	3.82
347.304	3.84
347.67	3.84
348.035	3.84
348.401	3.85
348.766	3.85
349.132	3.85
349.497	3.85
349.862	3.85
350.228	3.85
350.593	3.84
350.958	3.84
351.323	3.84
351.688	3.83
352.053	3.84
352.418	3.84
352.783	3.85
353.148	3.84
353.513	3.84
353.878	3.83
354.243	3.84
354.608	3.83
354.972	3.84
355.337	3.84
355.702	3.84
356.066	3.84
356.431	3.83
356.795	3.83
357.16	3.82
357.524	3.82
357.889	3.83
358.253	3.83
358.618	3.82
358.982	3.82
359.346	3.82
359.71	3.82
360.075	3.82
360.439	3.81
360.803	3.82
361.167	3.81
361.531	3.82
361.895	3.81
362.259	3.8
362.623	3.8
362.987	3.79
363.351	3.79
363.714	3.8
364.078	3.79
364.442	3.78
364.806	3.79
365.169	3.79
365.533	3.8
365.896	3.8
366.26	3.8
366.623	3.81
366.987	3.81
367.35	3.8
367.714	3.8
368.077	3.8
368.44	3.8
368.803	3.81
369.167	3.8
369.53	3.8
369.893	3.79
370.256	3.79
370.619	3.78
370.982	3.79
371.345	3.79
371.708	3.8
372.071	3.8
372.434	3.8
372.797	3.8
373.159	3.8
373.522	3.8
373.885	3.81
374.247	3.8
374.61	3.79
374.973	3.79
375.335	3.79
375.698	3.79
376.06	3.78
376.423	3.78
376.785	3.78
377.147	3.79
377.51	3.79
377.872	3.79
378.234	3.79
378.596	3.78
378.958	3.78
379.321	3.79
379.683	3.79
380.045	3.78
380.407	3.79
380.769	3.78
381.13	3.78
381.492	3.77
381.854	3.77
382.216	3.78
382.578	3.77
382.939	3.78
383.301	3.78
383.663	3.78
384.024	3.78
384.386	3.78
384.747	3.78
385.109	3.78
385.47	3.78
385.832	3.77
386.193	3.77
386.554	3.76
386.916	3.76
387.277	3.76
387.638	3.76
387.999	3.76
388.36	3.76
388.721	3.76
389.082	3.77
389.443	3.77
389.804	3.77
390.165	3.77
390.526	3.77
390.887	3.77
391.248	3.76
391.609	3.76
391.969	3.76
392.33	3.76
392.691	3.76
393.051	3.77
393.412	3.77
393.772	3.77
394.133	3.77
394.493	3.77
394.854	3.76
395.214	3.76
395.574	3.76
395.935	3.76
396.295	3.76
396.655	3.76
397.015	3.76
397.376	3.76
397.736	3.76
398.096	3.76
398.456	3.76
398.816	3.77
399.176	3.77
399.535	3.77
399.895	3.77
400.255	3.77
400.615	3.77
400.975	3.77
401.334	3.77
401.694	3.78
402.054	3.78
402.413	3.78
402.773	3.78
403.132	3.78
403.492	3.78
403.851	3.77
404.211	3.77
404.57	3.77
404.929	3.77
405.288	3.77
405.648	3.77
406.007	3.78
406.366	3.78
406.725	3.78
407.084	3.78
407.443	3.78
407.802	3.78
408.161	3.78
408.52	3.78
408.879	3.79
409.238	3.79
409.596	3.79
409.955	3.79
410.314	3.8
410.673	3.8
411.031	3.8
411.39	3.81
411.748	3.81
412.107	3.82
412.465	3.83
412.824	3.85
413.182	3.87
413.54	3.89
413.899	3.92
414.257	3.95
414.615	3.99
414.974	4.01
415.332	4.05
415.69	4.09
416.048	4.12
416.406	4.16
416.764	4.19
417.122	4.22
417.48	4.25
417.838	4.28
418.195	4.31
418.553	4.34
418.911	4.35
419.269	4.36
419.626	4.36
419.984	4.36
420.342	4.35
420.699	4.34
421.057	4.32
421.414	4.31
421.772	4.29
422.129	4.29
422.486	4.28
422.844	4.28
423.201	4.28
423.558	4.28
423.915	4.28
424.273	4.28
424.63	4.28
424.987	4.28
425.344	4.28
425.701	4.29
426.058	4.29
426.415	4.29
426.772	4.29
427.128	4.29
427.485	4.28
427.842	4.28
428.199	4.26
428.555	4.25
428.912	4.23
429.269	4.2
429.625	4.18
429.982	4.15
430.338	4.13
430.695	4.11
431.051	4.07
431.407	4.06
431.764	4.04
432.12	4.02
432.476	4.01
432.832	3.99
433.189	3.99
433.545	4
433.901	4.01
434.257	4.03
434.613	4.06
434.969	4.08
435.325	4.1
435.681	4.14
436.036	4.16
436.392	4.18
436.748	4.2
437.104	4.21
437.459	4.23
437.815	4.25
438.171	4.27
438.526	4.29
438.882	4.32
439.237	4.36
439.593	4.4
439.948	4.43
440.304	4.46
440.659	4.49
441.014	4.5
441.369	4.53
441.725	4.54
442.08	4.56
442.435	4.57
442.79	4.58
443.145	4.58
443.5	4.59
443.855	4.58
444.21	4.58
444.565	4.58
444.92	4.57
445.275	4.56
445.629	4.56
445.984	4.55
446.339	4.54
446.693	4.53
447.048	4.52
447.403	4.5
447.757	4.48
448.112	4.47
448.466	4.44
448.82	4.42
449.175	4.39
449.529	4.38
449.883	4.36
450.238	4.34
450.592	4.33
450.946	4.32
451.3	4.32
451.654	4.33
452.008	4.32
452.362	4.33
452.716	4.33
453.07	4.32
453.424	4.32
453.778	4.31
454.132	4.3
454.486	4.3
454.839	4.27
455.193	4.25
455.547	4.25
455.9	4.22
456.254	4.2
456.607	4.17
456.961	4.15
457.314	4.12
457.668	4.11
458.021	4.11
458.375	4.11
458.728	4.11
459.081	4.11
459.434	4.12
459.787	4.12
460.141	4.13
460.494	4.14
460.847	4.15
461.2	4.15
461.553	4.15
461.906	4.16
462.259	4.16
462.611	4.16
462.964	4.17
463.317	4.17
463.67	4.18
464.022	4.18
464.375	4.18
464.728	4.19
465.08	4.19
465.433	4.19
465.785	4.19
466.138	4.18
466.49	4.16
466.843	4.14
467.195	4.12
467.547	4.1
467.899	4.08
468.252	4.05
468.604	4.03
468.956	4
469.308	3.99
469.66	3.98
470.012	3.98
470.364	3.98
470.716	3.98
471.068	4
471.42	4.02
471.772	4.04
472.123	4.05
472.475	4.06
472.827	4.07
473.178	4.08
473.53	4.09
473.882	4.1
474.233	4.12
474.585	4.15
474.936	4.21
475.288	4.3
475.639	4.41
475.99	4.54
476.342	4.69
476.693	4.85
477.044	5.01
477.395	5.18
477.746	5.35
478.097	5.52
478.448	5.7
478.8	5.87
479.15	6.02
479.501	6.17
479.852	6.31
480.203	6.44
480.554	6.56
480.905	6.67
481.255	6.78
481.606	6.89
481.957	6.99
482.307	7.08
482.658	7.17
483.009	7.26
483.359	7.35
483.709	7.43
484.06	7.51
484.41	7.58
484.761	7.66
485.111	7.73
485.461	7.8
485.811	7.86
486.162	7.91
486.512	7.96
486.862	8
487.212	8.03
487.562	8.05
487.912	8.06
488.262	8.07
488.612	8.06
488.961	8.04
489.311	8
489.661	7.93
490.011	7.84
490.36	7.74
490.71	7.61
491.06	7.48
491.409	7.34
491.759	7.19
492.108	7.04
492.458	6.88
492.807	6.72
493.157	6.56
493.506	6.4
493.855	6.25
494.204	6.11
494.554	5.97
494.903	5.85
495.252	5.73
495.601	5.61
495.95	5.5
496.299	5.39
496.648	5.3
496.997	5.2
497.346	5.11
497.695	5.02
498.043	4.93
498.392	4.85
498.741	4.77
499.09	4.69
499.438	4.62
499.787	4.55
500.135	4.48
500.484	4.42
500.832	4.37
501.181	4.33
501.529	4.31
501.878	4.3
502.226	4.29
502.574	4.28
502.923	4.28
503.271	4.28
503.619	4.28
503.967	4.28
504.315	4.27
504.663	4.27
505.011	4.27
505.359	4.26
505.707	4.26
506.055	4.25
506.403	4.25
506.751	4.26
507.098	4.26
507.446	4.26
507.794	4.27
508.141	4.28
508.489	4.29
508.837	4.3
509.184	4.31
509.531	4.32
509.879	4.33
510.226	4.35
510.574	4.36
510.921	4.38
511.268	4.39
511.616	4.42
511.963	4.43
512.31	4.46
512.657	4.48
513.004	4.49
513.351	4.51
513.698	4.52
514.045	4.53
514.392	4.53
514.739	4.53
515.086	4.53
515.432	4.53
515.779	4.52
516.126	4.51
516.473	4.51
516.819	4.52
517.166	4.52
517.512	4.53
517.859	4.54
518.205	4.56
518.552	4.58
518.898	4.62
519.245	4.65
519.591	4.71
519.937	4.78
520.283	4.87
520.629	4.97
520.976	5.08
521.322	5.19
521.668	5.31
522.014	5.43
522.36	5.56
522.706	5.67
523.052	5.79
523.398	5.89
523.743	5.98
524.089	6.06
524.435	6.13
524.781	6.19
525.126	6.25
525.472	6.31
525.817	6.36
526.163	6.41
526.509	6.46
526.854	6.5
527.199	6.55
527.545	6.59
527.89	6.64
528.235	6.69
528.581	6.74
528.926	6.78
529.271	6.82
529.616	6.85
529.961	6.89
530.306	6.92
530.651	6.94
530.996	6.95
531.341	6.96
531.686	6.96
532.031	6.97
532.376	6.97
532.721	6.97
533.065	6.98
533.41	6.98
533.755	6.98
534.099	6.96
534.444	6.94
534.788	6.9
535.133	6.86
535.477	6.82
535.822	6.76
536.166	6.71
536.51	6.64
536.855	6.56
537.199	6.48
537.543	6.41
537.887	6.34
538.231	6.28
538.576	6.22
538.92	6.17
539.264	6.11
539.608	6.05
539.951	5.99
540.295	5.92
540.639	5.86
540.983	5.8
541.327	5.73
541.671	5.66
542.014	5.6
542.358	5.55
542.701	5.5
543.045	5.47
543.389	5.44
543.732	5.42
544.075	5.4
544.419	5.38
544.762	5.37
545.105	5.36
545.449	5.35
545.792	5.34
546.135	5.33
546.478	5.31
546.821	5.29
547.165	5.26
547.508	5.22
547.851	5.17
548.194	5.12
548.536	5.06
548.879	4.99
549.222	4.92
549.565	4.85
549.908	4.78
550.25	4.72
550.593	4.65
550.936	4.61
551.278	4.57
551.621	4.54
551.963	4.51
552.306	4.48
552.648	4.46
552.991	4.44
553.333	4.43
553.675	4.42
554.017	4.41
554.36	4.41
554.702	4.41
555.044	4.42
555.386	4.43
555.728	4.45
556.07	4.46
556.412	4.48
556.754	4.48
557.096	4.48
557.438	4.48
557.78	4.48
558.121	4.48
558.463	4.48
558.805	4.48
559.147	4.49
559.488	4.49
559.83	4.49
560.171	4.49
560.513	4.49
560.854	4.5
561.196	4.5
561.537	4.5
561.878	4.5
562.22	4.5
562.561	4.5
562.902	4.5
563.243	4.5
563.584	4.5
563.925	4.5
564.266	4.5
564.607	4.5
564.948	4.5
565.289	4.5
565.63	4.51
565.971	4.51
566.312	4.52
566.653	4.52
566.993	4.53
567.334	4.53
567.675	4.53
568.015	4.53
568.356	4.54
568.696	4.54
569.037	4.54
569.377	4.54
569.718	4.54
570.058	4.54
570.398	4.54
570.739	4.54
571.079	4.54
571.419	4.53
571.759	4.53
572.099	4.53
572.439	4.54
572.779	4.54
573.119	4.54
573.459	4.54
573.799	4.54
574.139	4.53
574.479	4.53
574.819	4.53
575.158	4.52
575.498	4.52
575.838	4.52
576.177	4.52
576.517	4.52
576.856	4.52
577.196	4.52
577.535	4.52
577.875	4.52
578.214	4.52
578.553	4.52
578.893	4.52
579.232	4.52
579.571	4.51
579.91	4.51
580.25	4.51
580.589	4.5
580.928	4.5
581.267	4.5
581.606	4.49
581.945	4.49
582.283	4.49
582.622	4.49
582.961	4.49
583.3	4.49
583.639	4.49
583.977	4.49
584.316	4.5
584.654	4.5
584.993	4.49
585.332	4.49
585.67	4.49
586.008	4.49
586.347	4.49
586.685	4.49
587.024	4.49
587.362	4.49
587.7	4.49
588.038	4.5
588.376	4.5
588.715	4.5
589.053	4.5
589.391	4.51
589.729	4.51
590.067	4.52
590.404	4.51
590.742	4.52
591.08	4.52
591.418	4.52
591.756	4.53
592.093	4.54
592.431	4.54
592.769	4.54
593.106	4.55
593.444	4.55
593.781	4.55
594.119	4.55
594.456	4.55
594.793	4.55
595.131	4.55
595.468	4.55
595.805	4.55
596.143	4.55
596.48	4.55
596.817	4.55
597.154	4.55
597.491	4.56
597.828	4.56
598.165	4.57
598.502	4.57
598.839	4.58
599.176	4.58
599.512	4.58
599.849	4.58
600.186	4.59
600.523	4.59
600.859	4.59
601.196	4.59
601.532	4.59
601.869	4.6
602.205	4.6
602.542	4.6
602.878	4.6
603.215	4.6
603.551	4.6
603.887	4.6
604.223	4.6
604.56	4.6
604.896	4.61
605.232	4.6
605.568	4.6
605.904	4.6
606.24	4.6
606.576	4.6
606.912	4.6
607.248	4.59
607.583	4.6
607.919	4.6
608.255	4.6
608.591	4.6
608.926	4.61
609.262	4.61
609.597	4.61
609.933	4.61
610.268	4.61
610.604	4.61
610.939	4.61
611.275	4.6
611.61	4.6
611.945	4.6
612.281	4.6
612.616	4.6
612.951	4.59
613.286	4.59
613.621	4.6
613.956	4.6
614.291	4.59
614.626	4.59
614.961	4.59
615.296	4.6
615.631	4.59
615.966	4.6
616.3	4.6
616.635	4.6
616.97	4.6
617.304	4.6
617.639	4.6
617.973	4.59
618.308	4.59
618.642	4.59
618.977	4.59
619.311	4.59
619.646	4.59
619.98	4.6
620.314	4.6
620.648	4.61
620.983	4.61
621.317	4.62
621.651	4.62
621.985	4.62
622.319	4.62
622.653	4.63
622.987	4.63
623.321	4.63
623.655	4.63
623.988	4.63
624.322	4.64
624.656	4.64
624.99	4.64
625.323	4.64
625.657	4.65
625.99	4.64
626.324	4.64
626.657	4.64
626.991	4.65
627.324	4.64
627.658	4.64
627.991	4.64
628.324	4.65
628.657	4.65
628.991	4.66
629.324	4.66
629.657	4.66
629.99	4.67
630.323	4.67
630.656	4.67
630.989	4.67
631.322	4.67
631.655	4.69
631.987	4.69
632.32	4.69
632.653	4.69
632.986	4.69
633.318	4.7
633.651	4.7
633.984	4.7
634.316	4.7
634.649	4.7
634.981	4.7
635.313	4.71
635.646	4.71
635.978	4.71
636.31	4.71
636.643	4.72
636.975	4.73
637.307	4.73
637.639	4.73
637.971	4.73
638.303	4.73
638.635	4.73
638.967	4.73
639.299	4.73
639.631	4.74
639.963	4.75
640.295	4.75
640.626	4.76
640.958	4.76
641.29	4.77
641.621	4.77
641.953	4.77
642.285	4.77
642.616	4.77
642.948	4.77
643.279	4.77
643.61	4.78
643.942	4.78
644.273	4.79
644.604	4.79
644.936	4.8
645.267	4.79
645.598	4.79
645.929	4.79
646.26	4.79
646.591	4.79
646.922	4.79
647.253	4.79
647.584	4.79
647.915	4.79
648.245	4.79
648.576	4.8
648.907	4.8
649.238	4.8
649.568	4.8
649.899	4.8
650.229	4.79
650.56	4.8
650.89	4.8
651.221	4.8
651.551	4.81
651.882	4.81
652.212	4.82
652.542	4.82
652.872	4.82
653.203	4.82
653.533	4.81
653.863	4.81
654.193	4.82
654.523	4.82
654.853	4.83
655.183	4.83
655.513	4.83
655.843	4.83
656.172	4.83
656.502	4.83
656.832	4.83
657.162	4.83
657.491	4.83
657.821	4.83
658.15	4.83
658.48	4.83
658.809	4.83
659.139	4.84
659.468	4.84
659.798	4.84
660.127	4.84
660.456	4.85
660.785	4.85
661.115	4.85
661.444	4.86
661.773	4.86
662.102	4.86
662.431	4.86
662.76	4.86
663.089	4.86
663.418	4.87
663.747	4.87
664.076	4.88
664.404	4.87
664.733	4.88
665.062	4.88
665.39	4.89
665.719	4.88
666.048	4.88
666.376	4.89
666.705	4.89
667.033	4.89
667.362	4.9
667.69	4.89
668.018	4.9
668.347	4.89
668.675	4.9
669.003	4.91
669.331	4.91
669.659	4.91
669.987	4.91
670.315	4.92
670.643	4.93
670.971	4.93
671.299	4.93
671.627	4.93
671.955	4.93
672.283	4.94
672.61	4.93
672.938	4.93
673.266	4.94
673.593	4.93
673.921	4.93
674.249	4.94
674.576	4.94
674.904	4.94
675.231	4.95
675.558	4.94
675.886	4.95
676.213	4.95
676.54	4.95
676.867	4.94
677.195	4.94
677.522	4.93
677.849	4.93
678.176	4.93
678.503	4.93
678.83	4.93
679.157	4.94
679.484	4.95
679.81	4.95
680.137	4.95
680.464	4.96
680.791	4.97
681.117	4.99
681.444	4.99
681.771	5
682.097	5
682.424	4.99
682.75	4.99
683.077	4.99
