Data from UWBM122617_Reflection_00010.txt Node
Date: Sun May 02 12:17:52 EDT 2021
User: vgr7
Spectrometer: USB2G7710
Scans to average: 10
Trigger mode: 4
Integration Time (sec): 1.000000E-1
Electric dark correction enabled: true
Boxcar width: 10
XAxis mode: Wavelengths
Number of Pixels in Spectrum: 2048
>>>>>Begin Spectral Data<<<<<
177.721	-2895
178.105	-981.82
178.488	-68.18
178.871	-64.56
179.254	248.08
179.636	120
180.019	70.98
180.402	115
180.785	36.9
181.168	21.5
181.55	14.55
181.933	-6.65
182.316	-20.8
182.698	-44.37
183.081	-1.23
183.463	-33.21
183.846	2.82
184.228	-13.97
184.611	11.88
184.993	21.38
185.376	30.27
185.758	31.27
186.14	27.34
186.522	19.41
186.904	12.97
187.287	16.68
187.669	8.24
188.051	-0.98
188.433	6.47
188.815	7.49
189.197	6.08
189.579	6.23
189.961	7.38
190.342	5.5
190.724	9.23
191.106	8.97
191.488	12.93
191.869	10.56
192.251	13.56
192.633	9.61
193.014	8.2
193.396	7.54
193.777	5.64
194.159	6.3
194.54	5.1
194.922	5.2
195.303	3.14
195.684	3.98
196.065	5.09
196.447	-2
196.828	-2.47
197.209	-4.46
197.59	-6
197.971	-6.21
198.352	-3.81
198.733	-2.46
199.114	-2.27
199.495	-3.98
199.876	-4.31
200.257	-6.8
200.638	-8.18
201.018	-9.14
201.399	-10.65
201.78	-9.29
202.16	-8.97
202.541	-10.73
202.922	-11.85
203.302	-13.88
203.683	-12.81
204.063	-11.53
204.444	-10.86
204.824	-8.08
205.204	-2.85
205.585	-1.85
205.965	-1.88
206.345	-0.64
206.725	-7.47
207.106	-8.28
207.486	-7.73
207.866	-2.17
208.246	-2.33
208.626	2.33
209.006	4.35
209.386	3.66
209.766	2.16
210.145	0.43
210.525	-0.09
210.905	2.64
211.285	5.85
211.664	5.09
212.044	6.41
212.424	11.31
212.803	9.96
213.183	9.3
213.562	9.65
213.942	7.44
214.321	3.28
214.701	3.37
215.08	2.42
215.459	1.48
215.838	-2.33
216.218	-2.62
216.597	-3.29
216.976	-4.91
217.355	-5.51
217.734	-4.22
218.113	-3.59
218.492	-1.71
218.871	-4.46
219.25	-4.8
219.629	-2.03
220.008	-4.67
220.387	-6.65
220.766	-12.07
221.144	-11.62
221.523	-8.29
221.902	-5.09
222.28	-3.45
222.659	-1.38
223.037	2.41
223.416	2.87
223.794	4.03
224.173	4.73
224.551	3.79
224.929	1.82
225.308	4.72
225.686	5.49
226.064	5.47
226.442	5.89
226.821	5.91
227.199	5.42
227.577	3.24
227.955	4.41
228.333	4.76
228.711	6.59
229.089	7
229.467	5.59
229.845	5.91
230.222	5.83
230.6	5.66
230.978	5.08
231.356	4.1
231.733	3.76
232.111	3.75
232.488	3.25
232.866	3.69
233.243	2.95
233.621	2.82
233.998	2.84
234.376	3.12
234.753	3.79
235.13	3.37
235.508	4.51
235.885	4.13
236.262	3.38
236.639	3.34
237.016	3.18
237.393	3.54
237.77	3.18
238.147	3.43
238.524	3.88
238.901	4.19
239.278	4.55
239.655	4.84
240.032	4.79
240.409	4.76
240.785	4.66
241.162	4.72
241.539	4.72
241.915	4.76
242.292	4.73
242.668	4.53
243.045	4.64
243.421	4.51
243.798	4.61
244.174	4.72
244.551	4.67
244.927	4.62
245.303	4.61
245.679	4.74
246.056	4.66
246.432	4.61
246.808	4.53
247.184	4.5
247.56	4.39
247.936	4.43
248.312	4.47
248.688	4.53
249.064	4.55
249.44	4.58
249.815	4.56
250.191	4.5
250.567	4.5
250.943	4.52
251.318	4.53
251.694	4.42
252.069	4.29
252.445	4.35
252.82	4.25
253.196	4.23
253.571	4.13
253.947	4.27
254.322	4.29
254.697	4.31
255.073	4.29
255.448	4.3
255.823	4.22
256.198	4.18
256.573	4.06
256.948	4.03
257.323	4.06
257.698	4.02
258.073	3.98
258.448	4
258.823	3.98
259.198	3.98
259.573	4.03
259.948	4.07
260.322	4.01
260.697	4.05
261.072	4.05
261.446	4.02
261.821	3.96
262.195	3.91
262.57	3.89
262.944	3.88
263.319	3.89
263.693	3.92
264.067	3.88
264.442	3.91
264.816	3.84
265.19	3.78
265.564	3.82
265.938	3.83
266.313	3.83
266.687	3.77
267.061	3.82
267.435	3.8
267.809	3.81
268.183	3.83
268.556	3.86
268.93	3.84
269.304	3.84
269.678	3.82
270.051	3.83
270.425	3.82
270.799	3.84
271.172	3.78
271.546	3.78
271.919	3.8
272.293	3.78
272.666	3.81
273.04	3.83
273.413	3.73
273.787	3.75
274.16	3.74
274.533	3.78
274.906	3.72
275.279	3.71
275.653	3.71
276.026	3.67
276.399	3.59
276.772	3.6
277.145	3.63
277.518	3.67
277.891	3.71
278.263	3.69
278.636	3.7
279.009	3.78
279.382	3.72
279.755	3.72
280.127	3.74
280.5	3.74
280.872	3.71
281.245	3.77
281.617	3.75
281.99	3.76
282.362	3.71
282.735	3.7
283.107	3.71
283.479	3.74
283.852	3.75
284.224	3.8
284.596	3.78
284.968	3.77
285.34	3.75
285.713	3.77
286.085	3.77
286.457	3.77
286.829	3.72
287.201	3.73
287.572	3.77
287.944	3.79
288.316	3.83
288.688	3.87
289.06	3.9
289.431	3.93
289.803	3.93
290.175	3.99
290.546	4.04
290.918	4.07
291.289	4.07
291.661	4.09
292.032	4.09
292.403	4.15
292.775	4.15
293.146	4.16
293.517	4.15
293.889	4.16
294.26	4.15
294.631	4.2
295.002	4.26
295.373	4.29
295.744	4.29
296.115	4.28
296.486	4.26
296.857	4.25
297.228	4.27
297.599	4.3
297.97	4.32
298.34	4.33
298.711	4.34
299.082	4.32
299.452	4.32
299.823	4.38
300.194	4.4
300.564	4.42
300.935	4.45
301.305	4.44
301.676	4.46
302.046	4.49
302.416	4.52
302.787	4.53
303.157	4.54
303.527	4.6
303.897	4.61
304.267	4.63
304.637	4.69
305.008	4.74
305.378	4.77
305.748	4.8
306.117	4.84
306.487	4.86
306.857	4.94
307.227	4.97
307.597	4.92
307.967	4.95
308.336	5
308.706	5.03
309.076	5.08
309.445	5.14
309.815	5.18
310.184	5.16
310.554	5.17
310.923	5.15
311.293	5.16
311.662	5.2
312.031	5.24
312.401	5.26
312.77	5.28
313.139	5.3
313.508	5.32
313.877	5.32
314.246	5.32
314.616	5.37
314.985	5.38
315.353	5.44
315.722	5.45
316.091	5.44
316.46	5.53
316.829	5.61
317.198	5.64
317.567	5.66
317.935	5.73
318.304	5.83
318.672	5.88
319.041	5.94
319.41	5.98
319.778	6.05
320.147	6.11
320.515	6.11
320.883	6.12
321.252	6.18
321.62	6.21
321.988	6.32
322.357	6.32
322.725	6.41
323.093	6.44
323.461	6.47
323.829	6.5
324.197	6.46
324.565	6.47
324.933	6.49
325.301	6.56
325.669	6.57
326.037	6.55
326.405	6.6
326.772	6.59
327.14	6.62
327.508	6.62
327.875	6.64
328.243	6.66
328.61	6.7
328.978	6.74
329.346	6.76
329.713	6.75
330.08	6.79
330.448	6.79
330.815	6.81
331.182	6.85
331.55	6.89
331.917	6.95
332.284	6.96
332.651	6.98
333.018	6.98
333.385	7.02
333.752	7.06
334.119	7.08
334.486	7.1
334.853	7.1
335.22	7.13
335.587	7.14
335.954	7.15
336.32	7.17
336.687	7.16
337.054	7.17
337.42	7.18
337.787	7.18
338.153	7.22
338.52	7.25
338.886	7.3
339.253	7.28
339.619	7.28
339.986	7.32
340.352	7.33
340.718	7.36
341.084	7.36
341.451	7.36
341.817	7.33
342.183	7.38
342.549	7.41
342.915	7.4
343.281	7.44
343.647	7.48
344.013	7.49
344.379	7.48
344.745	7.49
345.11	7.5
345.476	7.52
345.842	7.54
346.208	7.53
346.573	7.52
346.939	7.55
347.304	7.55
347.67	7.56
348.035	7.59
348.401	7.58
348.766	7.58
349.132	7.57
349.497	7.61
349.862	7.59
350.228	7.58
350.593	7.6
350.958	7.57
351.323	7.53
351.688	7.54
352.053	7.56
352.418	7.57
352.783	7.55
353.148	7.55
353.513	7.49
353.878	7.51
354.243	7.47
354.608	7.44
354.972	7.44
355.337	7.39
355.702	7.33
356.066	7.32
356.431	7.27
356.795	7.27
357.16	7.23
357.524	7.18
357.889	7.17
358.253	7.14
358.618	7.12
358.982	7.11
359.346	7.06
359.71	7.04
360.075	7.01
360.439	6.99
360.803	6.94
361.167	6.92
361.531	6.9
361.895	6.89
362.259	6.86
362.623	6.83
362.987	6.84
363.351	6.83
363.714	6.82
364.078	6.8
364.442	6.77
364.806	6.76
365.169	6.77
365.533	6.73
365.896	6.69
366.26	6.66
366.623	6.64
366.987	6.61
367.35	6.59
367.714	6.58
368.077	6.55
368.44	6.53
368.803	6.51
369.167	6.47
369.53	6.46
369.893	6.45
370.256	6.41
370.619	6.34
370.982	6.28
371.345	6.22
371.708	6.2
372.071	6.17
372.434	6.12
372.797	6.03
373.159	6.01
373.522	5.97
373.885	5.96
374.247	5.92
374.61	5.88
374.973	5.84
375.335	5.78
375.698	5.74
376.06	5.71
376.423	5.65
376.785	5.63
377.147	5.57
377.51	5.54
377.872	5.5
378.234	5.48
378.596	5.46
378.958	5.45
379.321	5.42
379.683	5.4
380.045	5.36
380.407	5.34
380.769	5.3
381.13	5.28
381.492	5.23
381.854	5.2
382.216	5.2
382.578	5.16
382.939	5.15
383.301	5.12
383.663	5.1
384.024	5.08
384.386	5.06
384.747	5.04
385.109	5.02
385.47	4.99
385.832	4.97
386.193	4.95
386.554	4.94
386.916	4.92
387.277	4.9
387.638	4.88
387.999	4.86
388.36	4.86
388.721	4.83
389.082	4.81
389.443	4.78
389.804	4.74
390.165	4.72
390.526	4.7
390.887	4.67
391.248	4.65
391.609	4.63
391.969	4.61
392.33	4.58
392.691	4.56
393.051	4.54
393.412	4.52
393.772	4.5
394.133	4.47
394.493	4.45
394.854	4.43
395.214	4.4
395.574	4.38
395.935	4.35
396.295	4.33
396.655	4.31
397.015	4.29
397.376	4.29
397.736	4.27
398.096	4.25
398.456	4.24
398.816	4.23
399.176	4.21
399.535	4.2
399.895	4.19
400.255	4.17
400.615	4.17
400.975	4.16
401.334	4.14
401.694	4.12
402.054	4.1
402.413	4.09
402.773	4.08
403.132	4.08
403.492	4.06
403.851	4.05
404.211	4.05
404.57	4.05
404.929	4.03
405.288	4.02
405.648	4.01
406.007	4
406.366	4
406.725	4
407.084	3.98
407.443	3.98
407.802	3.97
408.161	3.96
408.52	3.96
408.879	3.96
409.238	3.96
409.596	3.96
409.955	3.96
410.314	3.95
410.673	3.94
411.031	3.95
411.39	3.94
411.748	3.93
412.107	3.93
412.465	3.92
412.824	3.92
413.182	3.9
413.54	3.9
413.899	3.89
414.257	3.89
414.615	3.88
414.974	3.88
415.332	3.88
415.69	3.87
416.048	3.86
416.406	3.86
416.764	3.85
417.122	3.85
417.48	3.85
417.838	3.85
418.195	3.85
418.553	3.84
418.911	3.85
419.269	3.85
419.626	3.85
419.984	3.85
420.342	3.85
420.699	3.85
421.057	3.85
421.414	3.85
421.772	3.85
422.129	3.85
422.486	3.85
422.844	3.85
423.201	3.84
423.558	3.84
423.915	3.84
424.273	3.83
424.63	3.83
424.987	3.82
425.344	3.81
425.701	3.81
426.058	3.8
426.415	3.79
426.772	3.77
427.128	3.77
427.485	3.76
427.842	3.76
428.199	3.74
428.555	3.74
428.912	3.74
429.269	3.73
429.625	3.72
429.982	3.72
430.338	3.72
430.695	3.71
431.051	3.71
431.407	3.7
431.764	3.7
432.12	3.7
432.476	3.7
432.832	3.71
433.189	3.71
433.545	3.72
433.901	3.72
434.257	3.73
434.613	3.72
434.969	3.73
435.325	3.73
435.681	3.74
436.036	3.74
436.392	3.74
436.748	3.75
437.104	3.75
437.459	3.76
437.815	3.76
438.171	3.77
438.526	3.77
438.882	3.78
439.237	3.78
439.593	3.79
439.948	3.79
440.304	3.79
440.659	3.8
441.014	3.8
441.369	3.8
441.725	3.8
442.08	3.81
442.435	3.81
442.79	3.81
443.145	3.81
443.5	3.82
443.855	3.81
444.21	3.81
444.565	3.81
444.92	3.81
445.275	3.81
445.629	3.81
445.984	3.81
446.339	3.81
446.693	3.81
447.048	3.8
447.403	3.79
447.757	3.8
448.112	3.79
448.466	3.78
448.82	3.78
449.175	3.77
449.529	3.76
449.883	3.76
450.238	3.74
450.592	3.73
450.946	3.73
451.3	3.72
451.654	3.72
452.008	3.71
452.362	3.7
452.716	3.7
453.07	3.7
453.424	3.69
453.778	3.69
454.132	3.68
454.486	3.68
454.839	3.67
455.193	3.67
455.547	3.68
455.9	3.67
456.254	3.68
456.607	3.68
456.961	3.69
457.314	3.7
457.668	3.7
458.021	3.71
458.375	3.72
458.728	3.72
459.081	3.73
459.434	3.73
459.787	3.73
460.141	3.72
460.494	3.72
460.847	3.73
461.2	3.73
461.553	3.73
461.906	3.74
462.259	3.74
462.611	3.75
462.964	3.75
463.317	3.75
463.67	3.75
464.022	3.75
464.375	3.76
464.728	3.75
465.08	3.76
465.433	3.76
465.785	3.76
466.138	3.76
466.49	3.76
466.843	3.77
467.195	3.78
467.547	3.78
467.899	3.79
468.252	3.79
468.604	3.8
468.956	3.8
469.308	3.81
469.66	3.81
470.012	3.81
470.364	3.82
470.716	3.82
471.068	3.83
471.42	3.83
471.772	3.83
472.123	3.84
472.475	3.85
472.827	3.85
473.178	3.85
473.53	3.84
473.882	3.85
474.233	3.85
474.585	3.85
474.936	3.85
475.288	3.86
475.639	3.86
475.99	3.86
476.342	3.87
476.693	3.87
477.044	3.87
477.395	3.86
477.746	3.86
478.097	3.86
478.448	3.88
478.8	3.94
479.15	4.04
479.501	4.17
479.852	4.3
480.203	4.45
480.554	4.6
480.905	4.76
481.255	4.92
481.606	5.08
481.957	5.23
482.307	5.37
482.658	5.51
483.009	5.62
483.359	5.72
483.709	5.81
484.06	5.9
484.41	5.98
484.761	6.06
485.111	6.14
485.461	6.21
485.811	6.28
486.162	6.31
486.512	6.3
486.862	6.27
487.212	6.22
487.562	6.15
487.912	6.07
488.262	5.98
488.612	5.88
488.961	5.77
489.311	5.65
489.661	5.52
490.011	5.4
490.36	5.27
490.71	5.14
491.06	4.99
491.409	4.86
491.759	4.74
492.108	4.65
492.458	4.58
492.807	4.5
493.157	4.43
493.506	4.37
493.855	4.3
494.204	4.24
494.554	4.19
494.903	4.14
495.252	4.09
495.601	4.05
495.95	4.01
496.299	3.98
496.648	3.95
496.997	3.93
497.346	3.93
497.695	3.94
498.043	3.98
498.392	4.03
498.741	4.1
499.09	4.14
499.438	4.17
499.787	4.19
500.135	4.22
500.484	4.24
500.832	4.27
501.181	4.3
501.529	4.33
501.878	4.37
502.226	4.39
502.574	4.42
502.923	4.46
503.271	4.49
503.619	4.53
503.967	4.57
504.315	4.62
504.663	4.67
505.011	4.72
505.359	4.76
505.707	4.8
506.055	4.85
506.403	4.91
506.751	4.97
507.098	5.01
507.446	5.07
507.794	5.12
508.141	5.18
508.489	5.24
508.837	5.3
509.184	5.36
509.531	5.43
509.879	5.49
510.226	5.56
510.574	5.62
510.921	5.69
511.268	5.75
511.616	5.82
511.963	5.89
512.31	5.97
512.657	6.05
513.004	6.13
513.351	6.23
513.698	6.33
514.045	6.43
514.392	6.54
514.739	6.65
515.086	6.76
515.432	6.88
515.779	6.99
516.126	7.1
516.473	7.2
516.819	7.3
517.166	7.41
517.512	7.51
517.859	7.62
518.205	7.72
518.552	7.82
518.898	7.92
519.245	8.02
519.591	8.12
519.937	8.23
520.283	8.35
520.629	8.47
520.976	8.59
521.322	8.72
521.668	8.85
522.014	8.98
522.36	9.12
522.706	9.27
523.052	9.46
523.398	9.73
523.743	10.06
524.089	10.44
524.435	10.83
524.781	11.24
525.126	11.65
525.472	12.06
525.817	12.45
526.163	12.83
526.509	13.18
526.854	13.49
527.199	13.76
527.545	13.98
527.89	14.17
528.235	14.36
528.581	14.54
528.926	14.73
529.271	14.92
529.616	15.11
529.961	15.29
530.306	15.47
530.651	15.58
530.996	15.62
531.341	15.63
531.686	15.6
532.031	15.53
532.376	15.41
532.721	15.25
533.065	15.09
533.41	14.96
533.755	14.86
534.099	14.79
534.444	14.79
534.788	14.84
535.133	14.93
535.477	15.04
535.822	15.17
536.166	15.31
536.51	15.48
536.855	15.67
537.199	15.89
537.543	16.13
537.887	16.42
538.231	16.73
538.576	17.05
538.92	17.38
539.264	17.74
539.608	18.1
539.951	18.45
540.295	18.8
540.639	19.07
540.983	19.31
541.327	19.52
541.671	19.69
542.014	19.9
542.358	20.12
542.701	20.33
543.045	20.55
543.389	20.75
543.732	20.95
544.075	21.16
544.419	21.36
544.762	21.53
545.105	21.69
545.449	21.83
545.792	21.95
546.135	22.09
546.478	22.24
546.821	22.43
547.165	22.7
547.508	22.98
547.851	23.32
548.194	23.7
548.536	24.11
548.879	24.52
549.222	24.83
549.565	25.12
549.908	25.42
550.25	25.72
550.593	26.03
550.936	26.35
551.278	26.65
551.621	26.98
551.963	27.29
552.306	27.59
552.648	27.9
552.991	28.18
553.333	28.46
553.675	28.76
554.017	29.04
554.36	29.31
554.702	29.6
555.044	29.88
555.386	30.16
555.728	30.44
556.07	30.72
556.412	31.01
556.754	31.29
557.096	31.57
557.438	31.84
557.78	32.12
558.121	32.4
558.463	32.67
558.805	32.94
559.147	33.23
559.488	33.51
559.83	33.8
560.171	34.09
560.513	34.38
560.854	34.66
561.196	34.95
561.537	35.23
561.878	35.49
562.22	35.76
562.561	36.04
562.902	36.3
563.243	36.58
563.584	36.83
563.925	37.07
564.266	37.32
564.607	37.56
564.948	37.79
565.289	38.03
565.63	38.26
565.971	38.48
566.312	38.7
566.653	38.91
566.993	39.13
567.334	39.33
567.675	39.56
568.015	39.77
568.356	39.98
568.696	40.18
569.037	40.39
569.377	40.61
569.718	40.81
570.058	41.01
570.398	41.2
570.739	41.41
571.079	41.6
571.419	41.79
571.759	41.97
572.099	42.16
572.439	42.32
572.779	42.49
573.119	42.66
573.459	42.82
573.799	42.97
574.139	43.11
574.479	43.26
574.819	43.37
575.158	43.51
575.498	43.64
575.838	43.77
576.177	43.89
576.517	44
576.856	44.11
577.196	44.23
577.535	44.36
577.875	44.48
578.214	44.59
578.553	44.73
578.893	44.85
579.232	44.95
579.571	45.07
579.91	45.19
580.25	45.31
580.589	45.41
580.928	45.56
581.267	45.69
581.606	45.83
581.945	45.96
582.283	46.07
582.622	46.2
582.961	46.33
583.3	46.46
583.639	46.59
583.977	46.7
584.316	46.83
584.654	46.95
584.993	47.04
585.332	47.13
585.67	47.23
586.008	47.36
586.347	47.49
586.685	47.61
587.024	47.72
587.362	47.85
587.7	47.98
588.038	48.06
588.376	48.17
588.715	48.26
589.053	48.37
589.391	48.47
589.729	48.55
590.067	48.67
590.404	48.78
590.742	48.87
591.08	48.98
591.418	49.08
591.756	49.2
592.093	49.33
592.431	49.49
592.769	49.59
593.106	49.67
593.444	49.79
593.781	49.9
594.119	50
594.456	50.07
594.793	50.15
595.131	50.26
595.468	50.34
595.805	50.41
596.143	50.47
596.48	50.56
596.817	50.65
597.154	50.7
597.491	50.76
597.828	50.84
598.165	50.91
598.502	50.97
598.839	51.05
599.176	51.12
599.512	51.17
599.849	51.26
600.186	51.36
600.523	51.41
600.859	51.48
601.196	51.55
601.532	51.62
601.869	51.71
602.205	51.77
602.542	51.84
602.878	51.92
603.215	52.03
603.551	52.08
603.887	52.13
604.223	52.21
604.56	52.28
604.896	52.34
605.232	52.4
605.568	52.48
605.904	52.51
606.24	52.55
606.576	52.6
606.912	52.66
607.248	52.69
607.583	52.75
607.919	52.79
608.255	52.82
608.591	52.86
608.926	52.9
609.262	52.94
609.597	52.98
609.933	53.03
610.268	53.05
610.604	53.08
610.939	53.13
611.275	53.14
611.61	53.2
611.945	53.22
612.281	53.25
612.616	53.28
612.951	53.35
613.286	53.38
613.621	53.41
613.956	53.43
614.291	53.48
614.626	53.53
614.961	53.6
615.296	53.67
615.631	53.74
615.966	53.79
616.3	53.83
616.635	53.9
616.97	53.92
617.304	53.95
617.639	53.98
617.973	54.02
618.308	54.06
618.642	54.06
618.977	54.1
619.311	54.14
619.646	54.16
619.98	54.17
620.314	54.22
620.648	54.27
620.983	54.32
621.317	54.34
621.651	54.37
621.985	54.39
622.319	54.41
622.653	54.43
622.987	54.46
623.321	54.51
623.655	54.54
623.988	54.58
624.322	54.61
624.656	54.64
624.99	54.65
625.323	54.67
625.657	54.74
625.99	54.79
626.324	54.83
626.657	54.87
626.991	54.92
627.324	54.99
627.658	55.03
627.991	55.07
628.324	55.09
628.657	55.11
628.991	55.13
629.324	55.18
629.657	55.21
629.99	55.22
630.323	55.24
630.656	55.24
630.989	55.28
631.322	55.34
631.655	55.39
631.987	55.4
632.32	55.43
632.653	55.43
632.986	55.43
633.318	55.42
633.651	55.46
633.984	55.48
634.316	55.46
634.649	55.47
634.981	55.49
635.313	55.54
635.646	55.56
635.978	55.61
636.31	55.63
636.643	55.66
636.975	55.68
637.307	55.7
637.639	55.73
637.971	55.75
638.303	55.76
638.635	55.76
638.967	55.82
639.299	55.88
639.631	55.92
639.963	55.96
640.295	56.02
640.626	56.04
640.958	56.06
641.29	56.07
641.621	56.11
641.953	56.14
642.285	56.17
642.616	56.25
642.948	56.27
643.279	56.28
643.61	56.28
643.942	56.29
644.273	56.34
644.604	56.38
644.936	56.37
645.267	56.42
645.598	56.47
645.929	56.52
646.26	56.53
646.591	56.58
646.922	56.6
647.253	56.61
647.584	56.66
647.915	56.7
648.245	56.77
648.576	56.78
648.907	56.8
649.238	56.82
649.568	56.8
649.899	56.83
650.229	56.87
650.56	56.94
650.89	57
651.221	57.03
651.551	57.08
651.882	57.14
652.212	57.14
652.542	57.15
652.872	57.18
653.203	57.22
653.533	57.23
653.863	57.26
654.193	57.3
654.523	57.3
654.853	57.29
655.183	57.31
655.513	57.37
655.843	57.43
656.172	57.45
656.502	57.47
656.832	57.5
657.162	57.49
657.491	57.47
657.821	57.47
658.15	57.49
658.48	57.49
658.809	57.49
659.139	57.56
659.468	57.57
659.798	57.58
660.127	57.58
660.456	57.58
660.785	57.58
661.115	57.59
661.444	57.63
661.773	57.64
662.102	57.65
662.431	57.63
662.76	57.64
663.089	57.67
663.418	57.68
663.747	57.69
664.076	57.71
664.404	57.75
664.733	57.75
665.062	57.73
665.39	57.74
665.719	57.77
666.048	57.74
666.376	57.74
666.705	57.73
667.033	57.77
667.362	57.82
667.69	57.87
668.018	57.88
668.347	57.89
668.675	57.92
669.003	57.92
669.331	57.94
669.659	57.95
669.987	57.96
670.315	57.95
670.643	57.95
670.971	57.97
