Data from UWBM41002_Reflection_00011.txt Node
Date: Sun May 02 14:14:59 EDT 2021
User: vgr7
Spectrometer: USB2G7710
Scans to average: 10
Trigger mode: 4
Integration Time (sec): 1.000000E-1
Electric dark correction enabled: true
Boxcar width: 20
XAxis mode: Wavelengths
Number of Pixels in Spectrum: 2048
>>>>>Begin Spectral Data<<<<<
177.721	177.23
178.105	177.06
178.488	214.61
178.871	196.41
179.254	146.02
179.636	112.86
180.019	96.28
180.402	83.34
180.785	77.79
181.168	78.23
181.55	77.44
181.933	70.57
182.316	71.63
182.698	72.18
183.081	69.29
183.463	58.18
183.846	49.87
184.228	50.91
184.611	47.61
184.993	44.55
185.376	44.18
185.758	43.82
186.14	43.94
186.522	42.01
186.904	43.16
187.287	40.2
187.669	38.78
188.051	36.04
188.433	36.44
188.815	34.43
189.197	34.88
189.579	33.96
189.961	33.93
190.342	31.8
190.724	32.31
191.106	32.93
191.488	32.68
191.869	30.51
192.251	28.89
192.633	27.97
193.014	27.44
193.396	24.53
193.777	24.63
194.159	22.81
194.54	22.13
194.922	21.24
195.303	21.17
195.684	19.69
196.065	19.61
196.447	18.79
196.828	16.99
197.209	15.39
197.59	13.23
197.971	12.96
198.352	13.12
198.733	14.19
199.114	15.43
199.495	17.68
199.876	16.93
200.257	16.01
200.638	15.46
201.018	14.56
201.399	16.01
201.78	15.01
202.16	14.1
202.541	14.2
202.922	14.72
203.302	16.01
203.683	16.31
204.063	16.12
204.444	16.17
204.824	15.62
205.204	15.31
205.585	16.25
205.965	17.02
206.345	16.64
206.725	16.93
207.106	16.71
207.486	18.01
207.866	17.9
208.246	17.17
208.626	15.91
209.006	17.29
209.386	17.33
209.766	16.76
210.145	16.32
210.525	16.13
210.905	16.11
211.285	16.96
211.664	16.96
212.044	16.76
212.424	15.22
212.803	16.34
213.183	17.21
213.562	18.18
213.942	17.62
214.321	16.66
214.701	16.94
215.08	17.25
215.459	16.81
215.838	17.55
216.218	17.57
216.597	17.79
216.976	16.21
217.355	16.53
217.734	17.34
218.113	17.4
218.492	17.15
218.871	16.62
219.25	17.3
219.629	17.95
220.008	18.38
220.387	17.81
220.766	17.9
221.144	16.49
221.523	15.74
221.902	14.82
222.28	13.57
222.659	13.88
223.037	13.3
223.416	13.56
223.794	13.4
224.173	14.02
224.551	12.93
224.929	13.33
225.308	13.37
225.686	12.88
226.064	12.75
226.442	12.73
226.821	12.66
227.199	12.7
227.577	12.09
227.955	12.58
228.333	11.93
228.711	11.46
229.089	10.45
229.467	10.09
229.845	9.88
230.222	9.78
230.6	9.53
230.978	9.38
231.356	9.37
231.733	9.26
232.111	8.95
232.488	8.73
232.866	8.45
233.243	8.12
233.621	7.84
233.998	7.75
234.376	7.51
234.753	6.98
235.13	6.68
235.508	6.61
235.885	6.57
236.262	6.47
236.639	6.45
237.016	6.38
237.393	6.34
237.77	6.43
238.147	6.33
238.524	6.18
238.901	6.04
239.278	6.01
239.655	5.92
240.032	5.91
240.409	5.85
240.785	5.85
241.162	5.82
241.539	5.79
241.915	5.8
242.292	5.71
242.668	5.7
243.045	5.67
243.421	5.63
243.798	5.64
244.174	5.7
244.551	5.68
244.927	5.72
245.303	5.72
245.679	5.72
246.056	5.67
246.432	5.65
246.808	5.59
247.184	5.6
247.56	5.63
247.936	5.62
248.312	5.6
248.688	5.58
249.064	5.59
249.44	5.56
249.815	5.53
250.191	5.54
250.567	5.55
250.943	5.49
251.318	5.44
251.694	5.44
252.069	5.41
252.445	5.39
252.82	5.38
253.196	5.3
253.571	5.28
253.947	5.27
254.322	5.27
254.697	5.24
255.073	5.22
255.448	5.21
255.823	5.17
256.198	5.14
256.573	5.12
256.948	5.12
257.323	5.06
257.698	5.05
258.073	5.04
258.448	5.03
258.823	5.03
259.198	5.01
259.573	4.96
259.948	4.97
260.322	4.94
260.697	4.93
261.072	4.89
261.446	4.86
261.821	4.84
262.195	4.85
262.57	4.83
262.944	4.8
263.319	4.81
263.693	4.8
264.067	4.79
264.442	4.78
264.816	4.77
265.19	4.77
265.564	4.77
265.938	4.74
266.313	4.75
266.687	4.75
267.061	4.74
267.435	4.74
267.809	4.75
268.183	4.73
268.556	4.73
268.93	4.73
269.304	4.72
269.678	4.71
270.051	4.7
270.425	4.68
270.799	4.66
271.172	4.66
271.546	4.67
271.919	4.67
272.293	4.66
272.666	4.68
273.04	4.68
273.413	4.69
273.787	4.71
274.16	4.72
274.533	4.72
274.906	4.72
275.279	4.72
275.653	4.72
276.026	4.72
276.399	4.75
276.772	4.78
277.145	4.79
277.518	4.77
277.891	4.79
278.263	4.78
278.636	4.79
279.009	4.77
279.382	4.78
279.755	4.77
280.127	4.79
280.5	4.81
280.872	4.83
281.245	4.85
281.617	4.85
281.99	4.86
282.362	4.86
282.735	4.87
283.107	4.87
283.479	4.88
283.852	4.91
284.224	4.92
284.596	4.93
284.968	4.94
285.34	4.97
285.713	4.99
286.085	5
286.457	5.02
286.829	5.02
287.201	5.05
287.572	5.07
287.944	5.09
288.316	5.1
288.688	5.11
289.06	5.12
289.431	5.15
289.803	5.19
290.175	5.21
290.546	5.25
290.918	5.28
291.289	5.32
291.661	5.34
292.032	5.36
292.403	5.4
292.775	5.45
293.146	5.46
293.517	5.5
293.889	5.54
294.26	5.59
294.631	5.63
295.002	5.68
295.373	5.73
295.744	5.76
296.115	5.8
296.486	5.86
296.857	5.92
297.228	5.96
297.599	6.02
297.97	6.06
298.34	6.1
298.711	6.16
299.082	6.19
299.452	6.24
299.823	6.29
300.194	6.34
300.564	6.37
300.935	6.43
301.305	6.49
301.676	6.54
302.046	6.59
302.416	6.64
302.787	6.68
303.157	6.74
303.527	6.8
303.897	6.87
304.267	6.94
304.637	7
305.008	7.06
305.378	7.14
305.748	7.2
306.117	7.27
306.487	7.35
306.857	7.42
307.227	7.49
307.597	7.55
307.967	7.6
308.336	7.69
308.706	7.75
309.076	7.81
309.445	7.86
309.815	7.92
310.184	7.97
310.554	8.02
310.923	8.08
311.293	8.15
311.662	8.18
312.031	8.23
312.401	8.3
312.77	8.37
313.139	8.42
313.508	8.48
313.877	8.53
314.246	8.59
314.616	8.64
314.985	8.7
315.353	8.77
315.722	8.83
316.091	8.89
316.46	8.93
316.829	9
317.198	9.06
317.567	9.13
317.935	9.2
318.304	9.25
318.672	9.32
319.041	9.39
319.41	9.45
319.778	9.52
320.147	9.58
320.515	9.62
320.883	9.66
321.252	9.72
321.62	9.76
321.988	9.81
322.357	9.86
322.725	9.92
323.093	9.97
323.461	10
323.829	10.05
324.197	10.09
324.565	10.13
324.933	10.18
325.301	10.21
325.669	10.24
326.037	10.29
326.405	10.32
326.772	10.37
327.14	10.4
327.508	10.42
327.875	10.44
328.243	10.48
328.61	10.51
328.978	10.54
329.346	10.56
329.713	10.61
330.08	10.63
330.448	10.64
330.815	10.67
331.182	10.69
331.55	10.73
331.917	10.76
332.284	10.77
332.651	10.8
333.018	10.83
333.385	10.86
333.752	10.88
334.119	10.9
334.486	10.92
334.853	10.94
335.22	10.98
335.587	11.01
335.954	11.04
336.32	11.06
336.687	11.08
337.054	11.11
337.42	11.14
337.787	11.15
338.153	11.18
338.52	11.2
338.886	11.2
339.253	11.23
339.619	11.26
339.986	11.29
340.352	11.31
340.718	11.35
341.084	11.37
341.451	11.38
341.817	11.38
342.183	11.41
342.549	11.42
342.915	11.45
343.281	11.45
343.647	11.46
344.013	11.46
344.379	11.48
344.745	11.48
345.11	11.51
345.476	11.53
345.842	11.53
346.208	11.54
346.573	11.55
346.939	11.54
347.304	11.56
347.67	11.57
348.035	11.56
348.401	11.57
348.766	11.59
349.132	11.59
349.497	11.6
349.862	11.61
350.228	11.6
350.593	11.6
350.958	11.61
351.323	11.61
351.688	11.63
352.053	11.63
352.418	11.62
352.783	11.61
353.148	11.61
353.513	11.6
353.878	11.6
354.243	11.59
354.608	11.57
354.972	11.56
355.337	11.54
355.702	11.52
356.066	11.51
356.431	11.5
356.795	11.48
357.16	11.45
357.524	11.43
357.889	11.41
358.253	11.4
358.618	11.38
358.982	11.36
359.346	11.34
359.71	11.32
360.075	11.28
360.439	11.25
360.803	11.23
361.167	11.21
361.531	11.18
361.895	11.16
362.259	11.13
362.623	11.11
362.987	11.08
363.351	11.05
363.714	11.02
364.078	10.99
364.442	10.95
364.806	10.91
365.169	10.88
365.533	10.84
365.896	10.8
366.26	10.76
366.623	10.71
366.987	10.67
367.35	10.61
367.714	10.57
368.077	10.52
368.44	10.47
368.803	10.41
369.167	10.35
369.53	10.28
369.893	10.21
370.256	10.15
370.619	10.08
370.982	10.02
371.345	9.95
371.708	9.89
372.071	9.83
372.434	9.76
372.797	9.69
373.159	9.62
373.522	9.57
373.885	9.5
374.247	9.43
374.61	9.36
374.973	9.3
375.335	9.23
375.698	9.16
376.06	9.09
376.423	9.02
376.785	8.95
377.147	8.88
377.51	8.82
377.872	8.75
378.234	8.68
378.596	8.61
378.958	8.55
379.321	8.48
379.683	8.42
380.045	8.35
380.407	8.29
380.769	8.23
381.13	8.17
381.492	8.11
381.854	8.05
382.216	8
382.578	7.94
382.939	7.88
383.301	7.83
383.663	7.78
384.024	7.72
384.386	7.67
384.747	7.62
385.109	7.57
385.47	7.51
385.832	7.45
386.193	7.4
386.554	7.34
386.916	7.29
387.277	7.24
387.638	7.19
387.999	7.15
388.36	7.1
388.721	7.06
389.082	7.02
389.443	6.98
389.804	6.93
390.165	6.89
390.526	6.85
390.887	6.81
391.248	6.77
391.609	6.73
391.969	6.69
392.33	6.65
392.691	6.61
393.051	6.57
393.412	6.53
393.772	6.49
394.133	6.44
394.493	6.4
394.854	6.36
395.214	6.32
395.574	6.27
395.935	6.23
396.295	6.18
396.655	6.14
397.015	6.1
397.376	6.05
397.736	6.01
398.096	5.96
398.456	5.92
398.816	5.88
399.176	5.84
399.535	5.8
399.895	5.76
400.255	5.73
400.615	5.7
400.975	5.66
401.334	5.62
401.694	5.6
402.054	5.57
402.413	5.53
402.773	5.5
403.132	5.47
403.492	5.44
403.851	5.41
404.211	5.39
404.57	5.37
404.929	5.35
405.288	5.32
405.648	5.3
406.007	5.28
406.366	5.26
406.725	5.23
407.084	5.22
407.443	5.2
407.802	5.18
408.161	5.16
408.52	5.14
408.879	5.13
409.238	5.11
409.596	5.1
409.955	5.09
410.314	5.07
410.673	5.06
411.031	5.05
411.39	5.04
411.748	5.02
412.107	5.02
412.465	5.02
412.824	5.03
413.182	5.03
413.54	5.04
413.899	5.07
414.257	5.09
414.615	5.12
414.974	5.14
415.332	5.16
415.69	5.19
416.048	5.21
416.406	5.24
416.764	5.26
417.122	5.28
417.48	5.3
417.838	5.33
418.195	5.34
418.553	5.35
418.911	5.35
419.269	5.35
419.626	5.33
419.984	5.31
420.342	5.28
420.699	5.25
421.057	5.22
421.414	5.19
421.772	5.16
422.129	5.14
422.486	5.12
422.844	5.11
423.201	5.1
423.558	5.09
423.915	5.08
424.273	5.06
424.63	5.05
424.987	5.04
425.344	5.03
425.701	5.02
426.058	5.01
426.415	5.01
426.772	4.99
427.128	4.98
427.485	4.96
427.842	4.94
428.199	4.91
428.555	4.88
428.912	4.85
429.269	4.81
429.625	4.77
429.982	4.73
430.338	4.69
430.695	4.66
431.051	4.62
431.407	4.59
431.764	4.57
432.12	4.54
432.476	4.53
432.832	4.51
433.189	4.51
433.545	4.51
433.901	4.52
434.257	4.54
434.613	4.57
434.969	4.6
435.325	4.63
435.681	4.67
436.036	4.69
436.392	4.72
436.748	4.73
437.104	4.74
437.459	4.76
437.815	4.78
438.171	4.81
438.526	4.83
438.882	4.87
439.237	4.91
439.593	4.94
439.948	4.97
440.304	5.01
440.659	5.03
441.014	5.05
441.369	5.08
441.725	5.1
442.08	5.12
442.435	5.13
442.79	5.13
443.145	5.13
443.5	5.13
443.855	5.13
444.21	5.12
444.565	5.12
444.92	5.1
445.275	5.09
445.629	5.08
445.984	5.06
446.339	5.04
446.693	5.03
447.048	5
447.403	4.98
447.757	4.95
448.112	4.92
448.466	4.89
448.82	4.86
449.175	4.83
449.529	4.8
449.883	4.77
450.238	4.74
450.592	4.73
450.946	4.71
451.3	4.71
451.654	4.71
452.008	4.7
452.362	4.71
452.716	4.7
453.07	4.7
453.424	4.69
453.778	4.68
454.132	4.67
454.486	4.65
454.839	4.63
455.193	4.61
455.547	4.59
455.9	4.56
456.254	4.54
456.607	4.5
456.961	4.48
457.314	4.45
457.668	4.44
458.021	4.44
458.375	4.43
458.728	4.43
459.081	4.44
459.434	4.45
459.787	4.46
460.141	4.47
460.494	4.48
460.847	4.5
461.2	4.51
461.553	4.52
461.906	4.53
462.259	4.54
462.611	4.54
462.964	4.55
463.317	4.56
463.67	4.58
464.022	4.59
464.375	4.61
464.728	4.62
465.08	4.63
465.433	4.64
465.785	4.64
466.138	4.64
466.49	4.63
466.843	4.62
467.195	4.6
467.547	4.59
467.899	4.58
468.252	4.56
468.604	4.54
468.956	4.52
469.308	4.52
469.66	4.52
470.012	4.52
470.364	4.54
470.716	4.55
471.068	4.57
471.42	4.6
471.772	4.63
472.123	4.66
472.475	4.67
472.827	4.69
473.178	4.71
473.53	4.72
473.882	4.74
474.233	4.77
474.585	4.81
474.936	4.89
475.288	4.98
475.639	5.11
475.99	5.26
476.342	5.42
476.693	5.6
477.044	5.78
477.395	5.97
477.746	6.16
478.097	6.34
478.448	6.53
478.8	6.72
479.15	6.89
479.501	7.05
479.852	7.19
480.203	7.33
480.554	7.45
480.905	7.57
481.255	7.69
481.606	7.8
481.957	7.91
482.307	8
482.658	8.09
483.009	8.18
483.359	8.27
483.709	8.35
484.06	8.43
484.41	8.52
484.761	8.59
485.111	8.66
485.461	8.74
485.811	8.8
486.162	8.86
486.512	8.91
486.862	8.95
487.212	8.98
487.562	9
487.912	9.02
488.262	9.02
488.612	9.01
488.961	8.99
489.311	8.95
489.661	8.88
490.011	8.78
490.36	8.67
490.71	8.55
491.06	8.41
491.409	8.26
491.759	8.11
492.108	7.95
492.458	7.79
492.807	7.62
493.157	7.45
493.506	7.29
493.855	7.14
494.204	7.01
494.554	6.88
494.903	6.76
495.252	6.66
495.601	6.56
495.95	6.46
496.299	6.38
496.648	6.3
496.997	6.24
497.346	6.18
497.695	6.12
498.043	6.07
498.392	6.03
498.741	5.99
499.09	5.96
499.438	5.93
499.787	5.92
500.135	5.91
500.484	5.91
500.832	5.93
501.181	5.96
501.529	6.01
501.878	6.08
502.226	6.15
502.574	6.24
502.923	6.34
503.271	6.44
503.619	6.54
503.967	6.65
504.315	6.76
504.663	6.87
505.011	6.99
505.359	7.11
505.707	7.23
506.055	7.36
506.403	7.49
506.751	7.63
507.098	7.78
507.446	7.92
507.794	8.07
508.141	8.23
508.489	8.4
508.837	8.58
509.184	8.76
509.531	8.95
509.879	9.14
510.226	9.35
510.574	9.56
510.921	9.79
511.268	10.02
511.616	10.26
511.963	10.51
512.31	10.75
512.657	11
513.004	11.24
513.351	11.47
513.698	11.7
514.045	11.9
514.392	12.1
514.739	12.29
515.086	12.47
515.432	12.65
515.779	12.83
516.126	13.02
516.473	13.21
516.819	13.42
517.166	13.65
517.512	13.89
517.859	14.16
518.205	14.44
518.552	14.74
518.898	15.07
519.245	15.44
519.591	15.89
519.937	16.41
520.283	17
520.629	17.66
520.976	18.35
521.322	19.06
521.668	19.79
522.014	20.53
522.36	21.26
522.706	21.98
523.052	22.68
523.398	23.34
523.743	23.95
524.089	24.51
524.435	25.03
524.781	25.53
525.126	26.02
525.472	26.5
525.817	26.97
526.163	27.43
526.509	27.87
526.854	28.32
527.199	28.77
527.545	29.21
527.89	29.67
528.235	30.12
528.581	30.55
528.926	30.96
529.271	31.35
529.616	31.72
529.961	32.08
530.306	32.42
530.651	32.74
530.996	33.02
531.341	33.29
531.686	33.53
532.031	33.75
532.376	34
532.721	34.27
533.065	34.58
533.41	34.89
533.755	35.16
534.099	35.4
534.444	35.61
534.788	35.78
535.133	35.92
535.477	36.04
535.822	36.14
536.166	36.2
536.51	36.19
536.855	36.14
537.199	36.05
537.543	35.95
537.887	35.89
538.231	35.88
538.576	35.86
538.92	35.83
539.264	35.8
539.608	35.74
539.951	35.66
540.295	35.58
540.639	35.49
540.983	35.37
541.327	35.23
541.671	35.08
542.014	34.95
542.358	34.85
542.701	34.82
543.045	34.87
543.389	34.94
543.732	35.03
544.075	35.14
544.419	35.26
544.762	35.4
545.105	35.56
545.449	35.72
545.792	35.9
546.135	36.07
546.478	36.2
546.821	36.28
547.165	36.3
547.508	36.26
547.851	36.17
548.194	36.03
548.536	35.86
548.879	35.64
549.222	35.41
549.565	35.16
549.908	34.92
550.25	34.7
550.593	34.56
550.936	34.47
551.278	34.44
551.621	34.46
551.963	34.49
552.306	34.54
552.648	34.63
552.991	34.75
553.333	34.88
553.675	35.05
554.017	35.26
554.36	35.48
554.702	35.73
555.044	36.02
555.386	36.36
555.728	36.75
556.07	37.06
556.412	37.4
556.754	37.66
557.096	37.86
557.438	38.07
557.78	38.28
558.121	38.48
558.463	38.69
558.805	38.9
559.147	39.09
559.488	39.29
559.83	39.49
560.171	39.69
560.513	39.87
560.854	40.07
561.196	40.25
561.537	40.43
561.878	40.61
562.22	40.77
562.561	40.94
562.902	41.11
563.243	41.28
563.584	41.45
563.925	41.61
564.266	41.79
564.607	41.94
564.948	42.1
565.289	42.26
565.63	42.41
565.971	42.56
566.312	42.72
566.653	42.86
566.993	43
567.334	43.14
567.675	43.27
568.015	43.4
568.356	43.53
568.696	43.65
569.037	43.78
569.377	43.89
569.718	44
570.058	44.1
570.398	44.2
570.739	44.3
571.079	44.38
571.419	44.47
571.759	44.56
572.099	44.65
572.439	44.72
572.779	44.8
573.119	44.88
573.459	44.96
573.799	45.03
574.139	45.11
574.479	45.19
574.819	45.26
575.158	45.33
575.498	45.4
575.838	45.47
576.177	45.54
576.517	45.62
576.856	45.68
577.196	45.74
577.535	45.82
577.875	45.88
578.214	45.94
578.553	46
578.893	46.06
579.232	46.12
579.571	46.18
579.91	46.23
580.25	46.28
580.589	46.34
580.928	46.4
581.267	46.45
581.606	46.51
581.945	46.56
582.283	46.61
582.622	46.69
582.961	46.74
583.3	46.81
583.639	46.87
583.977	46.93
584.316	47
584.654	47.06
584.993	47.14
585.332	47.2
585.67	47.25
586.008	47.31
586.347	47.38
586.685	47.45
587.024	47.52
587.362	47.57
587.7	47.64
588.038	47.7
588.376	47.76
588.715	47.83
589.053	47.91
589.391	47.98
589.729	48.05
590.067	48.12
590.404	48.19
590.742	48.25
591.08	48.3
591.418	48.36
591.756	48.42
592.093	48.47
592.431	48.51
592.769	48.56
593.106	48.61
593.444	48.66
593.781	48.7
594.119	48.74
594.456	48.78
594.793	48.83
595.131	48.89
595.468	48.93
595.805	48.98
596.143	49.02
596.48	49.05
596.817	49.11
597.154	49.17
597.491	49.22
597.828	49.28
598.165	49.34
598.502	49.4
598.839	49.44
599.176	49.49
599.512	49.54
599.849	49.58
600.186	49.62
600.523	49.65
600.859	49.68
601.196	49.72
601.532	49.76
601.869	49.8
602.205	49.83
602.542	49.87
602.878	49.9
603.215	49.93
603.551	49.96
603.887	50
604.223	50.02
604.56	50.06
604.896	50.09
605.232	50.12
605.568	50.14
605.904	50.17
606.24	50.19
606.576	50.21
606.912	50.23
607.248	50.26
607.583	50.29
607.919	50.32
608.255	50.34
608.591	50.36
608.926	50.38
609.262	50.4
609.597	50.41
609.933	50.44
610.268	50.46
610.604	50.47
610.939	50.47
611.275	50.49
611.61	50.5
611.945	50.49
612.281	50.49
612.616	50.5
612.951	50.5
613.286	50.51
613.621	50.52
613.956	50.55
614.291	50.57
614.626	50.59
614.961	50.61
615.296	50.63
615.631	50.64
615.966	50.65
616.3	50.65
616.635	50.67
616.97	50.68
617.304	50.69
617.639	50.69
617.973	50.7
618.308	50.73
618.642	50.75
618.977	50.76
619.311	50.8
619.646	50.82
619.98	50.85
620.314	50.89
620.648	50.91
620.983	50.93
621.317	50.95
621.651	50.99
621.985	51.01
622.319	51.03
622.653	51.05
622.987	51.09
623.321	51.12
623.655	51.15
623.988	51.18
624.322	51.2
624.656	51.22
624.99	51.23
625.323	51.26
625.657	51.27
625.99	51.3
626.324	51.32
626.657	51.36
626.991	51.38
627.324	51.39
627.658	51.41
627.991	51.43
628.324	51.45
628.657	51.46
628.991	51.48
629.324	51.51
629.657	51.53
629.99	51.55
630.323	51.56
630.656	51.58
630.989	51.6
631.322	51.61
631.655	51.63
631.987	51.64
632.32	51.65
632.653	51.66
632.986	51.67
633.318	51.7
633.651	51.71
633.984	51.72
634.316	51.74
634.649	51.75
634.981	51.77
635.313	51.77
635.646	51.8
635.978	51.82
636.31	51.84
636.643	51.85
636.975	51.84
637.307	51.85
637.639	51.86
637.971	51.87
638.303	51.9
638.635	51.92
638.967	51.93
639.299	51.96
639.631	51.97
639.963	52
640.295	52.01
640.626	52.04
640.958	52.06
641.29	52.08
641.621	52.09
641.953	52.11
642.285	52.12
642.616	52.13
642.948	52.15
643.279	52.16
643.61	52.18
643.942	52.19
644.273	52.21
644.604	52.23
644.936	52.26
645.267	52.29
645.598	52.29
645.929	52.31
646.26	52.34
646.591	52.36
646.922	52.37
647.253	52.39
647.584	52.4
647.915	52.42
648.245	52.43
648.576	52.44
648.907	52.47
649.238	52.47
649.568	52.49
649.899	52.5
650.229	52.53
650.56	52.54
650.89	52.57
651.221	52.59
651.551	52.61
651.882	52.64
652.212	52.65
652.542	52.67
652.872	52.69
653.203	52.72
653.533	52.71
653.863	52.74
654.193	52.76
654.523	52.76
654.853	52.77
655.183	52.78
655.513	52.8
655.843	52.82
656.172	52.85
656.502	52.85
656.832	52.88
657.162	52.89
657.491	52.91
657.821	52.92
658.15	52.94
658.48	52.96
658.809	52.97
659.139	52.98
659.468	52.99
659.798	53
660.127	53
660.456	53.02
660.785	53.03
661.115	53.04
661.444	53.06
661.773	53.08
662.102	53.1
662.431	53.09
662.76	53.11
663.089	53.11
663.418	53.11
663.747	53.12
664.076	53.14
664.404	53.15
664.733	53.16
665.062	53.19
665.39	53.18
665.719	53.2
666.048	53.2
666.376	53.2
666.705	53.2
