Data from UWBM48344_Reflection_00003.txt Node
Date: Sun May 02 14:00:17 EDT 2021
User: vgr7
Spectrometer: USB2G7710
Scans to average: 10
Trigger mode: 4
Integration Time (sec): 1.000000E-1
Electric dark correction enabled: true
Boxcar width: 20
XAxis mode: Wavelengths
Number of Pixels in Spectrum: 2048
>>>>>Begin Spectral Data<<<<<
177.721	287.04
178.105	325.93
178.488	341.36
178.871	220.37
179.254	123.27
179.636	65.99
180.019	50.52
180.402	37.57
180.785	36.11
181.168	28.25
181.55	27.89
181.933	31.49
182.316	27.82
182.698	16.71
183.081	12.12
183.463	6.55
183.846	2.92
184.228	5.43
184.611	5.66
184.993	7.44
185.376	8.48
185.758	11.29
186.14	14.95
186.522	13.44
186.904	12.08
187.287	10.44
187.669	8
188.051	6.96
188.433	6.05
188.815	3.72
189.197	3
189.579	2.67
189.961	2.93
190.342	1.54
190.724	1.29
191.106	2.45
191.488	2.65
191.869	2.34
192.251	3.04
192.633	2.59
193.014	2.77
193.396	-1.13
193.777	1.38
194.159	1
194.54	0.31
194.922	-0.77
195.303	-1.59
195.684	-3
196.065	-3.02
196.447	-1.53
196.828	-0.5
197.209	-1.76
197.59	-4.22
197.971	-5.19
198.352	-3.37
198.733	-2.06
199.114	-1.88
199.495	-0.89
199.876	-2
200.257	-1.84
200.638	-2.22
201.018	-1.53
201.399	-1.23
201.78	-3.49
202.16	-4.62
202.541	-5.38
202.922	-5.7
203.302	-3.99
203.683	-3.8
204.063	-3.88
204.444	-2.1
204.824	-1.88
205.204	-1.95
205.585	-1.78
205.965	-0.58
206.345	-0.94
206.725	-1.13
207.106	-0.93
207.486	-1.06
207.866	-0.43
208.246	-0.57
208.626	-1.33
209.006	-0.63
209.386	-2.3
209.766	-3.51
210.145	-4.36
210.525	-3.21
210.905	-1.97
211.285	-2.25
211.664	-1.57
212.044	-3.23
212.424	-5.76
212.803	-5.45
213.183	-4.85
213.562	-2.91
213.942	-2.45
214.321	-4.25
214.701	-4.93
215.08	-3.5
215.459	-3.1
215.838	-3.7
216.218	-5.08
216.597	-5.88
216.976	-5.58
217.355	-5.04
217.734	-3.57
218.113	-2.5
218.492	-2.39
218.871	-3.34
219.25	-1.87
219.629	-0.2
220.008	-1.28
220.387	-2.52
220.766	0.21
221.144	-0.29
221.523	0.35
221.902	1.37
222.28	1.27
222.659	0.93
223.037	0.84
223.416	1.07
223.794	1.16
224.173	2.35
224.551	2.25
224.929	2.99
225.308	2.88
225.686	3.17
226.064	2.75
226.442	2.82
226.821	3.68
227.199	4
227.577	4.14
227.955	5.26
228.333	5.55
228.711	5.44
229.089	5.12
229.467	4.77
229.845	4.93
230.222	5.22
230.6	4.94
230.978	4.85
231.356	5.23
231.733	5.52
232.111	5.62
232.488	5.53
232.866	5.27
233.243	5.02
233.621	5.02
233.998	5.26
234.376	5.35
234.753	5.24
235.13	5.13
235.508	5.13
235.885	5.14
236.262	4.99
236.639	5.1
237.016	5.14
237.393	5.07
237.77	5.14
238.147	5.19
238.524	5.13
238.901	5.11
239.278	5.16
239.655	5.12
240.032	5.17
240.409	5.13
240.785	5.21
241.162	5.24
241.539	5.22
241.915	5.23
242.292	5.21
242.668	5.19
243.045	5.17
243.421	5.11
243.798	5.08
244.174	5.11
244.551	5.11
244.927	5.1
245.303	5.09
245.679	5.08
246.056	5.01
246.432	5.02
246.808	4.95
247.184	4.94
247.56	4.94
247.936	4.91
248.312	4.92
248.688	4.91
249.064	4.88
249.44	4.86
249.815	4.81
250.191	4.77
250.567	4.75
250.943	4.77
251.318	4.78
251.694	4.78
252.069	4.73
252.445	4.71
252.82	4.71
253.196	4.68
253.571	4.67
253.947	4.67
254.322	4.64
254.697	4.62
255.073	4.6
255.448	4.6
255.823	4.58
256.198	4.55
256.573	4.53
256.948	4.55
257.323	4.52
257.698	4.48
258.073	4.46
258.448	4.45
258.823	4.43
259.198	4.43
259.573	4.41
259.948	4.4
260.322	4.41
260.697	4.4
261.072	4.39
261.446	4.39
261.821	4.38
262.195	4.39
262.57	4.37
262.944	4.35
263.319	4.38
263.693	4.4
264.067	4.41
264.442	4.41
264.816	4.39
265.19	4.4
265.564	4.42
265.938	4.42
266.313	4.42
266.687	4.4
267.061	4.39
267.435	4.4
267.809	4.4
268.183	4.38
268.556	4.37
268.93	4.36
269.304	4.37
269.678	4.38
270.051	4.37
270.425	4.36
270.799	4.35
271.172	4.35
271.546	4.36
271.919	4.36
272.293	4.35
272.666	4.34
273.04	4.36
273.413	4.4
273.787	4.41
274.16	4.43
274.533	4.43
274.906	4.44
275.279	4.44
275.653	4.44
276.026	4.46
276.399	4.47
276.772	4.48
277.145	4.48
277.518	4.5
277.891	4.52
278.263	4.52
278.636	4.52
279.009	4.5
279.382	4.49
279.755	4.49
280.127	4.51
280.5	4.52
280.872	4.53
281.245	4.52
281.617	4.53
281.99	4.53
282.362	4.53
282.735	4.53
283.107	4.52
283.479	4.52
283.852	4.53
284.224	4.53
284.596	4.51
284.968	4.5
285.34	4.51
285.713	4.51
286.085	4.53
286.457	4.53
286.829	4.51
287.201	4.52
287.572	4.52
287.944	4.53
288.316	4.5
288.688	4.48
289.06	4.48
289.431	4.47
289.803	4.48
290.175	4.49
290.546	4.5
290.918	4.51
291.289	4.5
291.661	4.5
292.032	4.48
292.403	4.5
292.775	4.5
293.146	4.49
293.517	4.49
293.889	4.49
294.26	4.5
294.631	4.52
295.002	4.53
295.373	4.52
295.744	4.52
296.115	4.52
296.486	4.54
296.857	4.54
297.228	4.53
297.599	4.53
297.97	4.54
298.34	4.54
298.711	4.55
299.082	4.55
299.452	4.56
299.823	4.56
300.194	4.56
300.564	4.56
300.935	4.56
301.305	4.55
301.676	4.54
302.046	4.55
302.416	4.54
302.787	4.53
303.157	4.53
303.527	4.55
303.897	4.56
304.267	4.57
304.637	4.55
305.008	4.54
305.378	4.53
305.748	4.52
306.117	4.52
306.487	4.53
306.857	4.54
307.227	4.55
307.597	4.55
307.967	4.53
308.336	4.54
308.706	4.53
309.076	4.53
309.445	4.54
309.815	4.53
310.184	4.52
310.554	4.5
310.923	4.49
311.293	4.48
311.662	4.47
312.031	4.47
312.401	4.47
312.77	4.47
313.139	4.47
313.508	4.46
313.877	4.47
314.246	4.46
314.616	4.47
314.985	4.47
315.353	4.49
315.722	4.49
316.091	4.5
316.46	4.5
316.829	4.51
317.198	4.5
317.567	4.5
317.935	4.49
318.304	4.5
318.672	4.48
319.041	4.47
319.41	4.44
319.778	4.43
320.147	4.43
320.515	4.42
320.883	4.4
321.252	4.4
321.62	4.39
321.988	4.38
322.357	4.38
322.725	4.39
323.093	4.39
323.461	4.38
323.829	4.39
324.197	4.38
324.565	4.37
324.933	4.36
325.301	4.35
325.669	4.36
326.037	4.36
326.405	4.37
326.772	4.36
327.14	4.35
327.508	4.34
327.875	4.34
328.243	4.33
328.61	4.32
328.978	4.31
329.346	4.31
329.713	4.31
330.08	4.3
330.448	4.28
330.815	4.28
331.182	4.27
331.55	4.26
331.917	4.24
332.284	4.23
332.651	4.23
333.018	4.24
333.385	4.23
333.752	4.24
334.119	4.23
334.486	4.23
334.853	4.25
335.22	4.25
335.587	4.26
335.954	4.25
336.32	4.25
336.687	4.25
337.054	4.24
337.42	4.25
337.787	4.23
338.153	4.23
338.52	4.23
338.886	4.22
339.253	4.21
339.619	4.21
339.986	4.21
340.352	4.22
340.718	4.21
341.084	4.21
341.451	4.2
341.817	4.2
342.183	4.2
342.549	4.2
342.915	4.2
343.281	4.21
343.647	4.21
344.013	4.2
344.379	4.19
344.745	4.19
345.11	4.2
345.476	4.21
345.842	4.21
346.208	4.21
346.573	4.21
346.939	4.21
347.304	4.23
347.67	4.23
348.035	4.23
348.401	4.23
348.766	4.23
349.132	4.24
349.497	4.26
349.862	4.26
350.228	4.26
350.593	4.26
350.958	4.28
351.323	4.28
351.688	4.28
352.053	4.28
352.418	4.27
352.783	4.27
353.148	4.27
353.513	4.28
353.878	4.28
354.243	4.28
354.608	4.28
354.972	4.29
355.337	4.28
355.702	4.29
356.066	4.29
356.431	4.29
356.795	4.29
357.16	4.28
357.524	4.3
357.889	4.3
358.253	4.3
358.618	4.3
358.982	4.3
359.346	4.31
359.71	4.3
360.075	4.31
360.439	4.31
360.803	4.3
361.167	4.31
361.531	4.3
361.895	4.3
362.259	4.29
362.623	4.29
362.987	4.28
363.351	4.27
363.714	4.27
364.078	4.27
364.442	4.27
364.806	4.27
365.169	4.26
365.533	4.26
365.896	4.26
366.26	4.25
366.623	4.26
366.987	4.25
367.35	4.26
367.714	4.26
368.077	4.26
368.44	4.26
368.803	4.26
369.167	4.27
369.53	4.27
369.893	4.27
370.256	4.27
370.619	4.26
370.982	4.27
371.345	4.27
371.708	4.27
372.071	4.27
372.434	4.26
372.797	4.26
373.159	4.27
373.522	4.27
373.885	4.28
374.247	4.27
374.61	4.27
374.973	4.27
375.335	4.26
375.698	4.26
376.06	4.26
376.423	4.26
376.785	4.26
377.147	4.27
377.51	4.27
377.872	4.27
378.234	4.27
378.596	4.26
378.958	4.26
379.321	4.26
379.683	4.26
380.045	4.26
380.407	4.26
380.769	4.25
381.13	4.26
381.492	4.26
381.854	4.27
382.216	4.26
382.578	4.26
382.939	4.25
383.301	4.26
383.663	4.26
384.024	4.26
384.386	4.26
384.747	4.26
385.109	4.27
385.47	4.27
385.832	4.26
386.193	4.26
386.554	4.26
386.916	4.26
387.277	4.26
387.638	4.26
387.999	4.26
388.36	4.26
388.721	4.26
389.082	4.26
389.443	4.26
389.804	4.26
390.165	4.26
390.526	4.26
390.887	4.26
391.248	4.26
391.609	4.27
391.969	4.27
392.33	4.27
392.691	4.27
393.051	4.27
393.412	4.28
393.772	4.28
394.133	4.28
394.493	4.28
394.854	4.28
395.214	4.28
395.574	4.28
395.935	4.28
396.295	4.27
396.655	4.28
397.015	4.28
397.376	4.28
397.736	4.28
398.096	4.28
398.456	4.28
398.816	4.28
399.176	4.28
399.535	4.28
399.895	4.28
400.255	4.28
400.615	4.29
400.975	4.3
401.334	4.3
401.694	4.3
402.054	4.3
402.413	4.31
402.773	4.31
403.132	4.31
403.492	4.31
403.851	4.31
404.211	4.32
404.57	4.32
404.929	4.32
405.288	4.33
405.648	4.33
406.007	4.33
406.366	4.33
406.725	4.33
407.084	4.34
407.443	4.34
407.802	4.34
408.161	4.34
408.52	4.34
408.879	4.35
409.238	4.35
409.596	4.35
409.955	4.36
410.314	4.36
410.673	4.37
411.031	4.38
411.39	4.38
411.748	4.39
412.107	4.4
412.465	4.41
412.824	4.43
413.182	4.46
413.54	4.49
413.899	4.52
414.257	4.56
414.615	4.61
414.974	4.64
415.332	4.68
415.69	4.73
416.048	4.76
416.406	4.81
416.764	4.85
417.122	4.88
417.48	4.92
417.838	4.96
418.195	4.99
418.553	5.02
418.911	5.03
419.269	5.04
419.626	5.04
419.984	5.04
420.342	5.02
420.699	5.01
421.057	4.99
421.414	4.97
421.772	4.96
422.129	4.95
422.486	4.95
422.844	4.95
423.201	4.95
423.558	4.95
423.915	4.95
424.273	4.95
424.63	4.95
424.987	4.95
425.344	4.95
425.701	4.95
426.058	4.96
426.415	4.96
426.772	4.96
427.128	4.96
427.485	4.95
427.842	4.94
428.199	4.93
428.555	4.91
428.912	4.89
429.269	4.86
429.625	4.83
429.982	4.8
430.338	4.77
430.695	4.74
431.051	4.7
431.407	4.68
431.764	4.66
432.12	4.64
432.476	4.63
432.832	4.62
433.189	4.62
433.545	4.62
433.901	4.64
434.257	4.66
434.613	4.69
434.969	4.72
435.325	4.75
435.681	4.8
436.036	4.82
436.392	4.85
436.748	4.87
437.104	4.88
437.459	4.9
437.815	4.92
438.171	4.94
438.526	4.97
438.882	5.01
439.237	5.05
439.593	5.09
439.948	5.13
440.304	5.17
440.659	5.2
441.014	5.22
441.369	5.26
441.725	5.27
442.08	5.3
442.435	5.31
442.79	5.32
443.145	5.32
443.5	5.33
443.855	5.33
444.21	5.33
444.565	5.33
444.92	5.32
445.275	5.31
445.629	5.3
445.984	5.29
446.339	5.28
446.693	5.27
447.048	5.25
447.403	5.24
447.757	5.21
448.112	5.19
448.466	5.16
448.82	5.14
449.175	5.11
449.529	5.09
449.883	5.07
450.238	5.04
450.592	5.04
450.946	5.02
451.3	5.02
451.654	5.04
452.008	5.04
452.362	5.05
452.716	5.05
453.07	5.05
453.424	5.05
453.778	5.04
454.132	5.03
454.486	5.02
454.839	5
455.193	4.98
455.547	4.96
455.9	4.93
456.254	4.91
456.607	4.88
456.961	4.85
457.314	4.83
457.668	4.81
458.021	4.81
458.375	4.8
458.728	4.8
459.081	4.8
459.434	4.81
459.787	4.82
460.141	4.83
460.494	4.84
460.847	4.85
461.2	4.85
461.553	4.86
461.906	4.86
462.259	4.86
462.611	4.86
462.964	4.87
463.317	4.87
463.67	4.88
464.022	4.89
464.375	4.89
464.728	4.9
465.08	4.9
465.433	4.9
465.785	4.89
466.138	4.87
466.49	4.85
466.843	4.82
467.195	4.8
467.547	4.77
467.899	4.74
468.252	4.71
468.604	4.68
468.956	4.65
469.308	4.63
469.66	4.63
470.012	4.62
470.364	4.62
470.716	4.62
471.068	4.64
471.42	4.66
471.772	4.68
472.123	4.69
472.475	4.7
472.827	4.72
473.178	4.73
473.53	4.74
473.882	4.76
474.233	4.78
474.585	4.82
474.936	4.89
475.288	5
475.639	5.13
475.99	5.28
476.342	5.45
476.693	5.64
477.044	5.84
477.395	6.03
477.746	6.24
478.097	6.44
478.448	6.65
478.8	6.84
479.15	7.03
479.501	7.2
479.852	7.36
480.203	7.51
480.554	7.66
480.905	7.79
481.255	7.93
481.606	8.06
481.957	8.17
482.307	8.29
482.658	8.4
483.009	8.5
483.359	8.6
483.709	8.7
484.06	8.79
484.41	8.89
484.761	8.97
485.111	9.06
485.461	9.14
485.811	9.21
486.162	9.28
486.512	9.34
486.862	9.39
487.212	9.42
487.562	9.44
487.912	9.46
488.262	9.47
488.612	9.46
488.961	9.43
489.311	9.39
489.661	9.3
490.011	9.2
490.36	9.08
490.71	8.94
491.06	8.78
491.409	8.62
491.759	8.45
492.108	8.27
492.458	8.08
492.807	7.88
493.157	7.69
493.506	7.51
493.855	7.34
494.204	7.17
494.554	7.01
494.903	6.87
495.252	6.73
495.601	6.59
495.95	6.45
496.299	6.33
496.648	6.21
496.997	6.1
497.346	5.99
497.695	5.88
498.043	5.78
498.392	5.68
498.741	5.58
499.09	5.49
499.438	5.41
499.787	5.33
500.135	5.25
500.484	5.18
500.832	5.11
501.181	5.07
501.529	5.04
501.878	5.02
502.226	5.01
502.574	5
502.923	5
503.271	4.99
503.619	4.99
503.967	4.99
504.315	4.98
504.663	4.97
505.011	4.97
505.359	4.96
505.707	4.95
506.055	4.95
506.403	4.95
506.751	4.95
507.098	4.95
507.446	4.96
507.794	4.96
508.141	4.97
508.489	4.98
508.837	5
509.184	5.01
509.531	5.02
509.879	5.03
510.226	5.05
510.574	5.07
510.921	5.09
511.268	5.11
511.616	5.13
511.963	5.15
512.31	5.18
512.657	5.2
513.004	5.23
513.351	5.24
513.698	5.26
514.045	5.26
514.392	5.27
514.739	5.27
515.086	5.27
515.432	5.26
515.779	5.26
516.126	5.25
516.473	5.25
516.819	5.25
517.166	5.26
517.512	5.27
517.859	5.28
518.205	5.3
518.552	5.33
518.898	5.36
519.245	5.41
519.591	5.47
519.937	5.56
520.283	5.66
520.629	5.77
520.976	5.9
521.322	6.03
521.668	6.17
522.014	6.32
522.36	6.46
522.706	6.6
523.052	6.73
523.398	6.86
523.743	6.96
524.089	7.06
524.435	7.14
524.781	7.21
525.126	7.28
525.472	7.34
525.817	7.4
526.163	7.46
526.509	7.51
526.854	7.56
527.199	7.61
527.545	7.66
527.89	7.72
528.235	7.77
528.581	7.82
528.926	7.87
529.271	7.92
529.616	7.96
529.961	8
530.306	8.04
530.651	8.06
530.996	8.08
531.341	8.1
531.686	8.1
532.031	8.1
532.376	8.11
532.721	8.11
533.065	8.12
533.41	8.13
533.755	8.12
534.099	8.1
534.444	8.07
534.788	8.03
535.133	7.99
535.477	7.93
535.822	7.88
536.166	7.81
536.51	7.73
536.855	7.64
537.199	7.55
537.543	7.46
537.887	7.38
538.231	7.31
538.576	7.24
538.92	7.17
539.264	7.11
539.608	7.04
539.951	6.97
540.295	6.9
540.639	6.83
540.983	6.75
541.327	6.68
541.671	6.6
542.014	6.53
542.358	6.46
542.701	6.41
543.045	6.38
543.389	6.34
543.732	6.32
544.075	6.3
544.419	6.28
544.762	6.26
545.105	6.24
545.449	6.23
545.792	6.22
546.135	6.22
546.478	6.2
546.821	6.17
547.165	6.13
547.508	6.09
547.851	6.03
548.194	5.97
548.536	5.9
548.879	5.83
549.222	5.75
549.565	5.66
549.908	5.58
550.25	5.5
550.593	5.43
550.936	5.38
551.278	5.34
551.621	5.3
551.963	5.26
552.306	5.24
552.648	5.21
552.991	5.2
553.333	5.18
553.675	5.18
554.017	5.17
554.36	5.17
554.702	5.18
555.044	5.18
555.386	5.2
555.728	5.22
556.07	5.23
556.412	5.25
556.754	5.26
557.096	5.26
557.438	5.26
557.78	5.26
558.121	5.26
558.463	5.26
558.805	5.26
559.147	5.26
559.488	5.26
559.83	5.27
560.171	5.27
560.513	5.27
560.854	5.27
561.196	5.28
561.537	5.28
561.878	5.28
562.22	5.28
562.561	5.28
562.902	5.28
563.243	5.28
563.584	5.28
563.925	5.28
564.266	5.28
564.607	5.28
564.948	5.28
565.289	5.28
565.63	5.29
565.971	5.3
566.312	5.31
566.653	5.31
566.993	5.31
567.334	5.31
567.675	5.32
568.015	5.32
568.356	5.33
568.696	5.32
569.037	5.33
569.377	5.33
569.718	5.34
570.058	5.34
570.398	5.34
570.739	5.34
571.079	5.34
571.419	5.34
571.759	5.34
572.099	5.34
572.439	5.34
572.779	5.34
573.119	5.35
573.459	5.35
573.799	5.34
574.139	5.34
574.479	5.34
574.819	5.34
575.158	5.34
575.498	5.34
575.838	5.35
576.177	5.35
576.517	5.34
576.856	5.35
577.196	5.34
577.535	5.34
577.875	5.35
578.214	5.35
578.553	5.35
578.893	5.35
579.232	5.35
579.571	5.35
579.91	5.34
580.25	5.34
580.589	5.33
580.928	5.33
581.267	5.33
581.606	5.32
581.945	5.32
582.283	5.32
582.622	5.32
582.961	5.32
583.3	5.32
583.639	5.31
583.977	5.32
584.316	5.32
584.654	5.32
584.993	5.33
585.332	5.33
585.67	5.33
586.008	5.33
586.347	5.33
586.685	5.33
587.024	5.33
587.362	5.34
587.7	5.34
588.038	5.35
588.376	5.35
588.715	5.35
589.053	5.35
589.391	5.36
589.729	5.36
590.067	5.36
590.404	5.37
590.742	5.38
591.08	5.38
591.418	5.39
591.756	5.39
592.093	5.4
592.431	5.4
592.769	5.4
593.106	5.4
593.444	5.4
593.781	5.4
594.119	5.4
594.456	5.41
594.793	5.41
595.131	5.42
595.468	5.42
595.805	5.42
596.143	5.42
596.48	5.42
596.817	5.43
597.154	5.43
597.491	5.44
597.828	5.44
598.165	5.45
598.502	5.45
598.839	5.46
599.176	5.46
599.512	5.46
599.849	5.47
600.186	5.47
600.523	5.47
600.859	5.47
601.196	5.47
601.532	5.47
601.869	5.47
602.205	5.48
602.542	5.48
602.878	5.48
603.215	5.48
603.551	5.48
603.887	5.48
604.223	5.48
604.56	5.48
604.896	5.49
605.232	5.49
605.568	5.48
605.904	5.48
606.24	5.48
606.576	5.49
606.912	5.49
607.248	5.49
607.583	5.49
607.919	5.49
608.255	5.49
608.591	5.49
608.926	5.49
609.262	5.49
609.597	5.49
609.933	5.49
610.268	5.49
610.604	5.49
610.939	5.48
611.275	5.48
611.61	5.48
611.945	5.48
612.281	5.48
612.616	5.48
612.951	5.47
613.286	5.47
613.621	5.47
613.956	5.47
614.291	5.47
614.626	5.47
614.961	5.47
615.296	5.47
615.631	5.48
615.966	5.47
616.3	5.47
616.635	5.47
616.97	5.47
617.304	5.47
617.639	5.47
617.973	5.46
618.308	5.46
618.642	5.45
618.977	5.45
619.311	5.45
619.646	5.46
619.98	5.46
620.314	5.46
620.648	5.46
620.983	5.47
621.317	5.47
621.651	5.48
621.985	5.49
622.319	5.49
622.653	5.5
622.987	5.5
623.321	5.5
623.655	5.51
623.988	5.51
624.322	5.51
624.656	5.52
624.99	5.52
625.323	5.52
625.657	5.52
625.99	5.51
626.324	5.51
626.657	5.51
626.991	5.52
627.324	5.51
627.658	5.52
627.991	5.52
628.324	5.52
628.657	5.53
628.991	5.53
629.324	5.54
629.657	5.54
629.99	5.55
630.323	5.56
630.656	5.56
630.989	5.56
631.322	5.57
631.655	5.58
631.987	5.58
632.32	5.59
632.653	5.59
632.986	5.6
633.318	5.6
633.651	5.61
633.984	5.61
634.316	5.61
634.649	5.61
634.981	5.6
635.313	5.6
635.646	5.6
635.978	5.6
636.31	5.6
636.643	5.61
636.975	5.61
637.307	5.61
637.639	5.61
637.971	5.6
638.303	5.61
638.635	5.61
638.967	5.61
639.299	5.61
639.631	5.62
639.963	5.63
640.295	5.64
640.626	5.64
640.958	5.65
641.29	5.66
641.621	5.67
641.953	5.66
642.285	5.66
642.616	5.66
642.948	5.66
643.279	5.67
643.61	5.67
643.942	5.68
644.273	5.67
644.604	5.68
644.936	5.68
645.267	5.68
645.598	5.68
645.929	5.68
646.26	5.69
646.591	5.69
646.922	5.7
647.253	5.69
647.584	5.7
647.915	5.7
648.245	5.7
648.576	5.71
648.907	5.71
649.238	5.71
649.568	5.71
649.899	5.71
650.229	5.71
650.56	5.72
650.89	5.72
651.221	5.73
651.551	5.74
651.882	5.74
652.212	5.74
652.542	5.75
652.872	5.76
653.203	5.76
653.533	5.76
653.863	5.76
654.193	5.77
654.523	5.77
654.853	5.77
655.183	5.77
655.513	5.78
655.843	5.77
656.172	5.78
656.502	5.79
656.832	5.79
657.162	5.78
657.491	5.78
657.821	5.79
658.15	5.78
658.48	5.79
658.809	5.79
659.139	5.8
659.468	5.8
659.798	5.8
660.127	5.8
660.456	5.8
660.785	5.81
661.115	5.81
661.444	5.82
661.773	5.83
662.102	5.83
662.431	5.83
662.76	5.84
663.089	5.84
663.418	5.85
663.747	5.86
664.076	5.87
664.404	5.87
664.733	5.87
665.062	5.88
665.39	5.88
665.719	5.89
666.048	5.9
666.376	5.9
666.705	5.91
667.033	5.91
667.362	5.91
667.69	5.91
668.018	5.92
668.347	5.92
668.675	5.93
669.003	5.93
669.331	5.94
669.659	5.94
669.987	5.94
670.315	5.95
670.643	5.96
670.971	5.97
671.299	5.97
671.627	5.97
671.955	5.97
672.283	5.98
672.61	5.98
672.938	5.99
673.266	5.99
673.593	5.99
673.921	5.99
674.249	6.01
674.576	6.01
674.904	6.01
675.231	6.01
675.558	6.01
675.886	6.02
676.213	6.02
676.54	6.02
676.867	6.03
677.195	6.02
677.522	6.02
677.849	6.02
678.176	6.02
678.503	6.02
678.83	6.03
679.157	6.03
679.484	6.03
679.81	6.04
680.137	6.04
680.464	6.05
680.791	6.06
681.117	6.06
681.444	6.07
681.771	6.07
