Data from UWBM104549_Reflection_00006.txt Node
Date: Sun May 02 12:24:48 EDT 2021
User: vgr7
Spectrometer: USB2G7710
Scans to average: 10
Trigger mode: 4
Integration Time (sec): 1.000000E-1
Electric dark correction enabled: true
Boxcar width: 10
XAxis mode: Wavelengths
Number of Pixels in Spectrum: 2048
>>>>>Begin Spectral Data<<<<<
177.721	-970
178.105	-177.14
178.488	-98.67
178.871	-387.76
179.254	95.97
179.636	124.16
180.019	-745
180.402	55.56
180.785	-26.73
181.168	-48.88
181.55	-49.7
181.933	-114.67
182.316	-152.11
182.698	-143.6
183.081	-181.98
183.463	-402.42
183.846	-98.99
184.228	-139.64
184.611	-99.21
184.993	-23.49
185.376	-11.82
185.758	-14.91
186.14	-19.65
186.522	-20.92
186.904	-21.9
187.287	-17.52
187.669	-22.86
188.051	-27.08
188.433	-21.26
188.815	-17.95
189.197	-15.67
189.579	-11.56
189.961	-6.7
190.342	-10.06
190.724	-2.46
191.106	-1.31
191.488	6.68
191.869	-1.52
192.251	-1.51
192.633	-4.8
193.014	-11.61
193.396	-15.72
193.777	-8.78
194.159	-11.11
194.54	-18.48
194.922	-12.77
195.303	-12.63
195.684	-9.76
196.065	-15.38
196.447	-24.36
196.828	-27.48
197.209	-29.52
197.59	-33.91
197.971	-37.8
198.352	-29.21
198.733	-28.76
199.114	-28.6
199.495	-35.47
199.876	-29.91
200.257	-25.98
200.638	-26.39
201.018	-27.73
201.399	-26.74
201.78	-35.08
202.16	-31.63
202.541	-25.27
202.922	-29.11
203.302	-30.37
203.683	-25.15
204.063	-22.9
204.444	-18.26
204.824	-14.14
205.204	-14.67
205.585	-12.63
205.965	-10.15
206.345	-12.18
206.725	-14.43
207.106	-12.7
207.486	-9.77
207.866	-10.14
208.246	-9.77
208.626	-7.62
209.006	-6.25
209.386	-7.64
209.766	-6.18
210.145	-4.72
210.525	-7.95
210.905	-5.46
211.285	-6.75
211.664	-7.72
212.044	-6.34
212.424	-5.59
212.803	-9.62
213.183	-4.66
213.562	-5.46
213.942	-9.61
214.321	-13.9
214.701	-17.25
215.08	-18.39
215.459	-19.71
215.838	-25
216.218	-26.91
216.597	-26.46
216.976	-26.4
217.355	-21.39
217.734	-19.61
218.113	-19.47
218.492	-14.03
218.871	-12.03
219.25	-10.18
219.629	-11.56
220.008	-14.03
220.387	-16.36
220.766	-20.97
221.144	-24.55
221.523	-25.25
221.902	-24.92
222.28	-19.15
222.659	-17.19
223.037	-13.46
223.416	-11.08
223.794	-6.57
224.173	-4.75
224.551	-5.01
224.929	-6.67
225.308	-6.92
225.686	-6.84
226.064	-8.41
226.442	-8.35
226.821	-8.64
227.199	-7.87
227.577	-8.05
227.955	-6.47
228.333	-6
228.711	-3.78
229.089	-1.79
229.467	-0.28
229.845	1.49
230.222	1.32
230.6	2
230.978	1.16
231.356	0.94
231.733	0.78
232.111	0.59
232.488	0.3
232.866	0.71
233.243	0.79
233.621	1.12
233.998	1.89
234.376	1.67
234.753	2.84
235.13	3.08
235.508	4.51
235.885	5.15
236.262	5.64
236.639	6.26
237.016	5.83
237.393	5.9
237.77	5.31
238.147	5.17
238.524	5.48
238.901	5.93
239.278	5.7
239.655	5.82
240.032	5.76
240.409	6
240.785	6
241.162	6
241.539	6
241.915	5.87
242.292	5.94
242.668	5.74
243.045	5.68
243.421	5.33
243.798	5.3
244.174	5.33
244.551	5.2
244.927	5.22
245.303	5.13
245.679	5.25
246.056	5.18
246.432	5.12
246.808	5.01
247.184	5.08
247.56	5.04
247.936	5.1
248.312	5.11
248.688	5.2
249.064	5.14
249.44	5.08
249.815	5.08
250.191	5.09
250.567	5.04
250.943	5.05
251.318	5.1
251.694	4.94
252.069	4.78
252.445	4.79
252.82	4.71
253.196	4.77
253.571	4.64
253.947	4.8
254.322	4.78
254.697	4.85
255.073	4.75
255.448	4.77
255.823	4.74
256.198	4.65
256.573	4.58
256.948	4.66
257.323	4.71
257.698	4.75
258.073	4.71
258.448	4.73
258.823	4.72
259.198	4.72
259.573	4.78
259.948	4.87
260.322	4.85
260.697	4.87
261.072	4.83
261.446	4.85
261.821	4.81
262.195	4.77
262.57	4.74
262.944	4.76
263.319	4.71
263.693	4.7
264.067	4.74
264.442	4.74
264.816	4.73
265.19	4.7
265.564	4.68
265.938	4.66
266.313	4.61
266.687	4.57
267.061	4.56
267.435	4.54
267.809	4.48
268.183	4.51
268.556	4.48
268.93	4.46
269.304	4.44
269.678	4.41
270.051	4.41
270.425	4.41
270.799	4.42
271.172	4.46
271.546	4.5
271.919	4.49
272.293	4.49
272.666	4.48
273.04	4.49
273.413	4.39
273.787	4.39
274.16	4.42
274.533	4.41
274.906	4.41
275.279	4.43
275.653	4.41
276.026	4.34
276.399	4.34
276.772	4.39
277.145	4.4
277.518	4.39
277.891	4.39
278.263	4.4
278.636	4.41
279.009	4.36
279.382	4.33
279.755	4.25
280.127	4.26
280.5	4.28
280.872	4.24
281.245	4.37
281.617	4.39
281.99	4.4
282.362	4.43
282.735	4.44
283.107	4.42
283.479	4.44
283.852	4.47
284.224	4.52
284.596	4.51
284.968	4.51
285.34	4.54
285.713	4.59
286.085	4.56
286.457	4.55
286.829	4.55
287.201	4.57
287.572	4.6
287.944	4.61
288.316	4.63
288.688	4.67
289.06	4.62
289.431	4.63
289.803	4.59
290.175	4.6
290.546	4.61
290.918	4.61
291.289	4.64
291.661	4.68
292.032	4.63
292.403	4.64
292.775	4.64
293.146	4.61
293.517	4.6
293.889	4.66
294.26	4.65
294.631	4.73
295.002	4.76
295.373	4.8
295.744	4.79
296.115	4.79
296.486	4.78
296.857	4.78
297.228	4.78
297.599	4.81
297.97	4.84
298.34	4.86
298.711	4.88
299.082	4.85
299.452	4.84
299.823	4.86
300.194	4.89
300.564	4.92
300.935	4.95
301.305	4.97
301.676	4.92
302.046	4.91
302.416	4.88
302.787	4.82
303.157	4.8
303.527	4.8
303.897	4.83
304.267	4.83
304.637	4.83
305.008	4.87
305.378	4.87
305.748	4.81
306.117	4.8
306.487	4.81
306.857	4.87
307.227	4.86
307.597	4.88
307.967	4.86
308.336	4.83
308.706	4.83
309.076	4.85
309.445	4.86
309.815	4.84
310.184	4.87
310.554	4.88
310.923	4.89
311.293	4.89
311.662	4.86
312.031	4.88
312.401	4.88
312.77	4.88
313.139	4.88
313.508	4.91
313.877	4.92
314.246	4.91
314.616	4.9
314.985	4.89
315.353	4.89
315.722	4.86
316.091	4.83
316.46	4.82
316.829	4.81
317.198	4.84
317.567	4.86
317.935	4.8
318.304	4.78
318.672	4.8
319.041	4.84
319.41	4.85
319.778	4.88
320.147	4.92
320.515	4.86
320.883	4.85
321.252	4.83
321.62	4.8
321.988	4.86
322.357	4.85
322.725	4.86
323.093	4.83
323.461	4.87
323.829	4.9
324.197	4.89
324.565	4.88
324.933	4.84
325.301	4.9
325.669	4.93
326.037	4.96
326.405	4.92
326.772	4.9
327.14	4.85
327.508	4.83
327.875	4.82
328.243	4.86
328.61	4.85
328.978	4.9
329.346	4.9
329.713	4.82
330.08	4.8
330.448	4.81
330.815	4.81
331.182	4.8
331.55	4.8
331.917	4.83
332.284	4.82
332.651	4.84
333.018	4.83
333.385	4.81
333.752	4.81
334.119	4.84
334.486	4.87
334.853	4.91
335.22	4.89
335.587	4.89
335.954	4.9
336.32	4.9
336.687	4.87
337.054	4.84
337.42	4.86
337.787	4.85
338.153	4.86
338.52	4.87
338.886	4.88
339.253	4.83
339.619	4.82
339.986	4.83
340.352	4.85
340.718	4.87
341.084	4.88
341.451	4.88
341.817	4.88
342.183	4.88
342.549	4.89
342.915	4.9
343.281	4.89
343.647	4.9
344.013	4.9
344.379	4.92
344.745	4.94
345.11	4.96
345.476	4.99
345.842	4.98
346.208	4.98
346.573	4.99
346.939	5.03
347.304	5.02
347.67	5.01
348.035	5.02
348.401	4.99
348.766	4.97
349.132	4.96
349.497	4.96
349.862	4.93
350.228	4.92
350.593	4.95
350.958	4.95
351.323	4.96
351.688	4.98
352.053	4.98
352.418	5.01
352.783	5
353.148	5
353.513	5.01
353.878	5.05
354.243	5.03
354.608	5.03
354.972	5.04
355.337	5.03
355.702	5
356.066	5.01
356.431	5.03
356.795	5.04
357.16	5.01
357.524	5.02
357.889	5.03
358.253	5.03
358.618	5.03
358.982	5.04
359.346	5.02
359.71	5.02
360.075	5.02
360.439	5.03
360.803	5.02
361.167	4.99
361.531	4.98
361.895	4.99
362.259	5
362.623	5
362.987	5.01
363.351	5.02
363.714	5.05
364.078	5.06
364.442	5.06
364.806	5.07
365.169	5.09
365.533	5.09
365.896	5.08
366.26	5.08
366.623	5.06
366.987	5.08
367.35	5.08
367.714	5.09
368.077	5.1
368.44	5.12
368.803	5.14
369.167	5.16
369.53	5.17
369.893	5.17
370.256	5.18
370.619	5.19
370.982	5.21
371.345	5.19
371.708	5.18
372.071	5.21
372.434	5.22
372.797	5.22
373.159	5.24
373.522	5.25
373.885	5.26
374.247	5.29
374.61	5.28
374.973	5.29
375.335	5.27
375.698	5.27
376.06	5.29
376.423	5.3
376.785	5.31
377.147	5.3
377.51	5.32
377.872	5.32
378.234	5.3
378.596	5.3
378.958	5.3
379.321	5.31
379.683	5.3
380.045	5.29
380.407	5.29
380.769	5.29
381.13	5.3
381.492	5.28
381.854	5.27
382.216	5.3
382.578	5.3
382.939	5.32
383.301	5.31
383.663	5.31
384.024	5.3
384.386	5.31
384.747	5.31
385.109	5.31
385.47	5.3
385.832	5.32
386.193	5.33
386.554	5.33
386.916	5.35
387.277	5.35
387.638	5.37
387.999	5.38
388.36	5.39
388.721	5.4
389.082	5.42
389.443	5.42
389.804	5.4
390.165	5.41
390.526	5.41
390.887	5.41
391.248	5.42
391.609	5.43
391.969	5.42
392.33	5.43
392.691	5.43
393.051	5.45
393.412	5.44
393.772	5.43
394.133	5.45
394.493	5.45
394.854	5.45
395.214	5.44
395.574	5.43
395.935	5.44
396.295	5.42
396.655	5.42
397.015	5.41
397.376	5.42
397.736	5.44
398.096	5.43
398.456	5.45
398.816	5.44
399.176	5.43
399.535	5.45
399.895	5.45
400.255	5.44
400.615	5.44
400.975	5.46
401.334	5.46
401.694	5.46
402.054	5.46
402.413	5.46
402.773	5.48
403.132	5.49
403.492	5.48
403.851	5.49
404.211	5.5
404.57	5.51
404.929	5.51
405.288	5.5
405.648	5.5
406.007	5.5
406.366	5.51
406.725	5.51
407.084	5.5
407.443	5.5
407.802	5.51
408.161	5.52
408.52	5.52
408.879	5.52
409.238	5.52
409.596	5.51
409.955	5.5
410.314	5.49
410.673	5.48
411.031	5.49
411.39	5.49
411.748	5.5
412.107	5.5
412.465	5.5
412.824	5.51
413.182	5.51
413.54	5.52
413.899	5.51
414.257	5.51
414.615	5.52
414.974	5.52
415.332	5.53
415.69	5.53
416.048	5.53
416.406	5.55
416.764	5.57
417.122	5.59
417.48	5.61
417.838	5.62
418.195	5.64
418.553	5.64
418.911	5.65
419.269	5.65
419.626	5.66
419.984	5.67
420.342	5.67
420.699	5.68
421.057	5.68
421.414	5.69
421.772	5.7
422.129	5.71
422.486	5.71
422.844	5.72
423.201	5.72
423.558	5.72
423.915	5.71
424.273	5.71
424.63	5.69
424.987	5.69
425.344	5.68
425.701	5.67
426.058	5.67
426.415	5.67
426.772	5.66
427.128	5.65
427.485	5.64
427.842	5.64
428.199	5.63
428.555	5.63
428.912	5.62
429.269	5.61
429.625	5.61
429.982	5.6
430.338	5.59
430.695	5.6
431.051	5.59
431.407	5.59
431.764	5.59
432.12	5.59
432.476	5.59
432.832	5.6
433.189	5.6
433.545	5.61
433.901	5.61
434.257	5.61
434.613	5.61
434.969	5.62
435.325	5.62
435.681	5.63
436.036	5.63
436.392	5.64
436.748	5.65
437.104	5.66
437.459	5.67
437.815	5.67
438.171	5.68
438.526	5.69
438.882	5.7
439.237	5.71
439.593	5.73
439.948	5.73
440.304	5.73
440.659	5.74
441.014	5.74
441.369	5.75
441.725	5.76
442.08	5.77
442.435	5.77
442.79	5.78
443.145	5.79
443.5	5.79
443.855	5.8
444.21	5.8
444.565	5.8
444.92	5.8
445.275	5.8
445.629	5.8
445.984	5.8
446.339	5.8
446.693	5.8
447.048	5.79
447.403	5.78
447.757	5.78
448.112	5.77
448.466	5.77
448.82	5.78
449.175	5.78
449.529	5.77
449.883	5.76
450.238	5.75
450.592	5.74
450.946	5.73
451.3	5.72
451.654	5.71
452.008	5.71
452.362	5.69
452.716	5.69
453.07	5.69
453.424	5.68
453.778	5.67
454.132	5.68
454.486	5.68
454.839	5.69
455.193	5.69
455.547	5.69
455.9	5.69
456.254	5.69
456.607	5.7
456.961	5.71
457.314	5.72
457.668	5.73
458.021	5.74
458.375	5.75
458.728	5.75
459.081	5.76
459.434	5.75
459.787	5.76
460.141	5.76
460.494	5.76
460.847	5.76
461.2	5.76
461.553	5.77
461.906	5.76
462.259	5.76
462.611	5.77
462.964	5.77
463.317	5.77
463.67	5.77
464.022	5.76
464.375	5.76
464.728	5.75
465.08	5.75
465.433	5.74
465.785	5.74
466.138	5.74
466.49	5.74
466.843	5.74
467.195	5.75
467.547	5.75
467.899	5.76
468.252	5.76
468.604	5.76
468.956	5.76
469.308	5.78
469.66	5.78
470.012	5.78
470.364	5.78
470.716	5.78
471.068	5.79
471.42	5.79
471.772	5.8
472.123	5.8
472.475	5.8
472.827	5.8
473.178	5.81
473.53	5.81
473.882	5.82
474.233	5.82
474.585	5.83
474.936	5.84
475.288	5.84
475.639	5.84
475.99	5.85
476.342	5.86
476.693	5.87
477.044	5.87
477.395	5.88
477.746	5.88
478.097	5.89
478.448	5.93
478.8	6.04
479.15	6.2
479.501	6.4
479.852	6.63
480.203	6.86
480.554	7.11
480.905	7.36
481.255	7.61
481.606	7.85
481.957	8.09
482.307	8.32
482.658	8.53
483.009	8.71
483.359	8.85
483.709	8.99
484.06	9.11
484.41	9.23
484.761	9.33
485.111	9.44
485.461	9.55
485.811	9.64
486.162	9.68
486.512	9.67
486.862	9.62
487.212	9.53
487.562	9.42
487.912	9.28
488.262	9.13
488.612	8.97
488.961	8.8
489.311	8.61
489.661	8.41
490.011	8.21
490.36	8
490.71	7.8
491.06	7.58
491.409	7.38
491.759	7.21
492.108	7.07
492.458	6.95
492.807	6.83
493.157	6.73
493.506	6.62
493.855	6.52
494.204	6.43
494.554	6.34
494.903	6.26
495.252	6.18
495.601	6.1
495.95	6.04
496.299	5.98
496.648	5.92
496.997	5.89
497.346	5.87
497.695	5.87
498.043	5.92
498.392	5.99
498.741	6.07
499.09	6.11
499.438	6.13
499.787	6.13
500.135	6.14
500.484	6.15
500.832	6.16
501.181	6.17
501.529	6.17
501.878	6.17
502.226	6.18
502.574	6.18
502.923	6.2
503.271	6.2
503.619	6.21
503.967	6.22
504.315	6.24
504.663	6.25
505.011	6.25
505.359	6.27
505.707	6.29
506.055	6.31
506.403	6.33
506.751	6.35
507.098	6.36
507.446	6.38
507.794	6.4
508.141	6.41
508.489	6.43
508.837	6.44
509.184	6.46
509.531	6.48
509.879	6.49
510.226	6.5
510.574	6.51
510.921	6.52
511.268	6.52
511.616	6.53
511.963	6.54
512.31	6.56
512.657	6.56
513.004	6.57
513.351	6.57
513.698	6.58
514.045	6.6
514.392	6.61
514.739	6.62
515.086	6.63
515.432	6.65
515.779	6.66
516.126	6.68
516.473	6.69
516.819	6.7
517.166	6.71
517.512	6.71
517.859	6.73
518.205	6.73
518.552	6.74
518.898	6.75
519.245	6.76
519.591	6.76
519.937	6.77
520.283	6.77
520.629	6.78
520.976	6.78
521.322	6.79
521.668	6.8
522.014	6.81
522.36	6.81
522.706	6.81
523.052	6.84
523.398	6.9
523.743	7
524.089	7.14
524.435	7.29
524.781	7.45
525.126	7.62
525.472	7.78
525.817	7.94
526.163	8.1
526.509	8.23
526.854	8.34
527.199	8.42
527.545	8.48
527.89	8.52
528.235	8.55
528.581	8.57
528.926	8.6
529.271	8.62
529.616	8.65
529.961	8.67
530.306	8.68
530.651	8.65
530.996	8.59
531.341	8.5
531.686	8.39
532.031	8.25
532.376	8.09
532.721	7.91
533.065	7.73
533.41	7.58
533.755	7.43
534.099	7.31
534.444	7.22
534.788	7.16
535.133	7.11
535.477	7.07
535.822	7.03
536.166	7
536.51	6.97
536.855	6.94
537.199	6.93
537.543	6.93
537.887	6.94
538.231	6.95
538.576	6.97
538.92	7
539.264	7.04
539.608	7.09
539.951	7.15
540.295	7.19
540.639	7.21
540.983	7.22
541.327	7.2
541.671	7.2
542.014	7.2
542.358	7.21
542.701	7.21
543.045	7.22
543.389	7.22
543.732	7.22
544.075	7.22
544.419	7.22
544.762	7.21
545.105	7.19
545.449	7.16
545.792	7.12
546.135	7.09
546.478	7.05
546.821	7.02
547.165	7
547.508	6.99
547.851	6.99
548.194	7.02
548.536	7.04
548.879	7.05
549.222	7.04
549.565	7.03
549.908	7.03
550.25	7.03
550.593	7.02
550.936	7.02
551.278	7.02
551.621	7.01
551.963	7.01
552.306	7.01
552.648	7.01
552.991	7.01
553.333	7
553.675	7
554.017	7
554.36	7.01
554.702	7.01
555.044	7.02
555.386	7.01
555.728	7.02
556.07	7.01
556.412	7
556.754	7
557.096	7
557.438	6.99
557.78	7
558.121	6.99
558.463	6.99
558.805	7
559.147	7
559.488	7
559.83	7
560.171	7
560.513	7
560.854	7
561.196	7
561.537	7.01
561.878	7.03
562.22	7.03
562.561	7.04
562.902	7.06
563.243	7.08
563.584	7.09
563.925	7.09
564.266	7.09
564.607	7.1
564.948	7.11
565.289	7.12
565.63	7.13
565.971	7.12
566.312	7.13
566.653	7.13
566.993	7.13
567.334	7.14
567.675	7.15
568.015	7.17
568.356	7.17
568.696	7.17
569.037	7.16
569.377	7.17
569.718	7.18
570.058	7.18
570.398	7.19
570.739	7.19
571.079	7.2
571.419	7.2
571.759	7.2
572.099	7.2
572.439	7.2
572.779	7.21
573.119	7.21
573.459	7.21
573.799	7.22
574.139	7.23
574.479	7.23
574.819	7.23
575.158	7.22
575.498	7.22
575.838	7.22
576.177	7.22
576.517	7.21
576.856	7.2
577.196	7.19
577.535	7.19
577.875	7.18
578.214	7.19
578.553	7.2
578.893	7.19
579.232	7.19
579.571	7.19
579.91	7.18
580.25	7.18
580.589	7.17
580.928	7.16
581.267	7.17
581.606	7.16
581.945	7.16
582.283	7.17
582.622	7.17
582.961	7.17
583.3	7.18
583.639	7.19
583.977	7.2
584.316	7.21
584.654	7.21
584.993	7.22
585.332	7.2
585.67	7.2
586.008	7.21
586.347	7.22
586.685	7.23
587.024	7.24
587.362	7.25
587.7	7.26
588.038	7.27
588.376	7.27
588.715	7.28
589.053	7.29
589.391	7.29
589.729	7.29
590.067	7.3
590.404	7.3
590.742	7.3
591.08	7.31
591.418	7.31
591.756	7.32
592.093	7.31
592.431	7.32
592.769	7.33
593.106	7.33
593.444	7.32
593.781	7.33
594.119	7.35
594.456	7.35
594.793	7.35
595.131	7.36
595.468	7.37
595.805	7.37
596.143	7.36
596.48	7.37
596.817	7.38
597.154	7.38
597.491	7.38
597.828	7.37
598.165	7.36
598.502	7.36
598.839	7.36
599.176	7.37
599.512	7.36
599.849	7.35
600.186	7.36
600.523	7.36
600.859	7.37
601.196	7.36
601.532	7.37
601.869	7.38
602.205	7.38
602.542	7.38
602.878	7.39
603.215	7.4
603.551	7.41
603.887	7.42
604.223	7.44
604.56	7.45
604.896	7.46
605.232	7.48
605.568	7.5
605.904	7.5
606.24	7.51
606.576	7.53
606.912	7.55
607.248	7.54
607.583	7.54
607.919	7.53
608.255	7.53
608.591	7.53
608.926	7.53
609.262	7.53
609.597	7.53
609.933	7.53
610.268	7.53
610.604	7.52
610.939	7.51
611.275	7.5
611.61	7.49
611.945	7.48
612.281	7.48
612.616	7.47
612.951	7.46
613.286	7.45
613.621	7.44
613.956	7.43
614.291	7.45
614.626	7.46
614.961	7.48
615.296	7.48
615.631	7.49
615.966	7.49
616.3	7.49
616.635	7.5
616.97	7.5
617.304	7.5
617.639	7.51
617.973	7.53
618.308	7.53
618.642	7.53
618.977	7.54
619.311	7.53
619.646	7.54
619.98	7.55
620.314	7.55
620.648	7.55
620.983	7.57
621.317	7.55
621.651	7.56
621.985	7.54
622.319	7.54
622.653	7.53
622.987	7.53
623.321	7.53
623.655	7.53
623.988	7.54
624.322	7.54
624.656	7.56
624.99	7.57
625.323	7.58
625.657	7.58
625.99	7.59
626.324	7.61
626.657	7.62
626.991	7.62
627.324	7.62
627.658	7.62
627.991	7.61
628.324	7.62
628.657	7.62
628.991	7.63
629.324	7.64
629.657	7.66
629.99	7.66
630.323	7.66
630.656	7.65
630.989	7.66
631.322	7.68
631.655	7.67
631.987	7.66
632.32	7.68
632.653	7.71
632.986	7.71
633.318	7.72
633.651	7.72
633.984	7.73
634.316	7.74
634.649	7.76
634.981	7.78
635.313	7.79
635.646	7.78
635.978	7.79
636.31	7.77
636.643	7.77
636.975	7.81
637.307	7.83
637.639	7.84
637.971	7.85
638.303	7.85
638.635	7.86
638.967	7.87
639.299	7.85
639.631	7.84
639.963	7.84
640.295	7.85
640.626	7.86
640.958	7.86
641.29	7.85
641.621	7.82
641.953	7.82
642.285	7.85
642.616	7.86
642.948	7.87
643.279	7.88
643.61	7.9
643.942	7.89
644.273	7.89
644.604	7.88
644.936	7.87
645.267	7.87
645.598	7.84
645.929	7.85
646.26	7.86
646.591	7.87
646.922	7.86
647.253	7.87
647.584	7.87
647.915	7.88
648.245	7.9
648.576	7.92
648.907	7.93
649.238	7.94
649.568	7.93
649.899	7.93
650.229	7.93
650.56	7.93
650.89	7.93
651.221	7.97
651.551	7.97
651.882	8
652.212	8
652.542	8.03
652.872	8.04
653.203	8.05
653.533	8.05
653.863	8.05
654.193	8.03
654.523	8.03
654.853	8.03
655.183	8.01
655.513	8.03
655.843	8.03
656.172	8.03
656.502	8.07
656.832	8.07
657.162	8.08
657.491	8.09
657.821	8.09
658.15	8.07
658.48	8.09
658.809	8.09
659.139	8.09
659.468	8.1
659.798	8.1
660.127	8.11
660.456	8.13
660.785	8.12
661.115	8.15
661.444	8.17
661.773	8.18
662.102	8.19
662.431	8.18
662.76	8.18
663.089	8.18
663.418	8.17
663.747	8.16
664.076	8.17
664.404	8.16
664.733	8.15
665.062	8.17
665.39	8.17
665.719	8.16
666.048	8.19
666.376	8.17
666.705	8.18
667.033	8.16
667.362	8.14
667.69	8.16
668.018	8.16
668.347	8.18
668.675	8.14
669.003	8.16
669.331	8.15
669.659	8.16
669.987	8.15
670.315	8.14
670.643	8.15
670.971	8.18
671.299	8.17
671.627	8.19
671.955	8.18
672.283	8.16
672.61	8.19
672.938	8.16
673.266	8.19
673.593	8.18
673.921	8.2
674.249	8.21
674.576	8.21
674.904	8.21
675.231	8.22
675.558	8.28
675.886	8.31
676.213	8.34
676.54	8.36
676.867	8.38
677.195	8.4
677.522	8.43
677.849	8.42
678.176	8.43
678.503	8.43
678.83	8.44
679.157	8.45
679.484	8.45
679.81	8.48
680.137	8.48
