Data from UWBM59056_Reflection_00015.txt Node
Date: Sun May 02 13:46:15 EDT 2021
User: vgr7
Spectrometer: USB2G7710
Scans to average: 10
Trigger mode: 4
Integration Time (sec): 1.000000E-1
Electric dark correction enabled: true
Boxcar width: 20
XAxis mode: Wavelengths
Number of Pixels in Spectrum: 2048
>>>>>Begin Spectral Data<<<<<
177.721	72.03
178.105	40.37
178.488	83.38
178.871	93.85
179.254	117.02
179.636	67.2
180.019	60.15
180.402	55.83
180.785	51.34
181.168	49.11
181.55	37.88
181.933	42.12
182.316	38.08
182.698	39.58
183.081	34.54
183.463	35.89
183.846	33.96
184.228	34.7
184.611	36.58
184.993	40.36
185.376	38.16
185.758	38.58
186.14	40.34
186.522	40.98
186.904	39.43
187.287	40.01
187.669	42.9
188.051	44.39
188.433	43.93
188.815	41.95
189.197	38.98
189.579	36.82
189.961	36.88
190.342	36.96
190.724	35.06
191.106	35.96
191.488	36.06
191.869	35.58
192.251	33.21
192.633	33.86
193.014	32.66
193.396	30.52
193.777	32.7
194.159	32
194.54	30.21
194.922	28.31
195.303	29.16
195.684	28.48
196.065	28.39
196.447	27.91
196.828	27.41
197.209	28.04
197.59	26.13
197.971	26.4
198.352	27.3
198.733	29.5
199.114	28.59
199.495	29.17
199.876	28.64
200.257	28.32
200.638	25.98
201.018	28.32
201.399	29.84
201.78	29.3
202.16	28
202.541	26.61
202.922	26.34
203.302	26.81
203.683	25.22
204.063	25.67
204.444	23.76
204.824	25.78
205.204	24.05
205.585	23.73
205.965	23.14
206.345	23.8
206.725	24.31
207.106	23.74
207.486	22.2
207.866	21.9
208.246	20.45
208.626	19.78
209.006	19.81
209.386	18.93
209.766	18.03
210.145	18.69
210.525	18.57
210.905	19.02
211.285	18.25
211.664	18.28
212.044	18.12
212.424	16.82
212.803	17.06
213.183	16.27
213.562	16
213.942	16.16
214.321	15.15
214.701	15.06
215.08	15.6
215.459	15.07
215.838	13.92
216.218	13.65
216.597	11.46
216.976	9.65
217.355	9.73
217.734	9.65
218.113	10.3
218.492	9.28
218.871	9.64
219.25	10.29
219.629	9.16
220.008	9.36
220.387	8.84
220.766	9.79
221.144	9.48
221.523	9.92
221.902	10.8
222.28	9.41
222.659	9.39
223.037	8.63
223.416	9.63
223.794	9.77
224.173	9.78
224.551	9.65
224.929	9.86
225.308	9.74
225.686	9.92
226.064	9.76
226.442	9.58
226.821	9.68
227.199	9.71
227.577	9.76
227.955	10.21
228.333	10.2
228.711	9.89
229.089	9.58
229.467	8.99
229.845	8.72
230.222	8.59
230.6	8.23
230.978	8.16
231.356	8.2
231.733	8.28
232.111	8.25
232.488	8.19
232.866	7.92
233.243	7.88
233.621	7.42
233.998	7.37
234.376	7.11
234.753	6.6
235.13	6.45
235.508	6.58
235.885	6.37
236.262	6.33
236.639	6.22
237.016	6.03
237.393	6
237.77	6.04
238.147	5.86
238.524	5.88
238.901	5.68
239.278	5.67
239.655	5.7
240.032	5.65
240.409	5.57
240.785	5.53
241.162	5.46
241.539	5.37
241.915	5.38
242.292	5.38
242.668	5.36
243.045	5.31
243.421	5.27
243.798	5.23
244.174	5.3
244.551	5.3
244.927	5.29
245.303	5.29
245.679	5.29
246.056	5.21
246.432	5.17
246.808	5.13
247.184	5.11
247.56	5.11
247.936	5.1
248.312	5.09
248.688	5.07
249.064	5.1
249.44	5.1
249.815	5.06
250.191	5.08
250.567	5.08
250.943	5.03
251.318	5
251.694	4.99
252.069	4.97
252.445	4.96
252.82	4.9
253.196	4.85
253.571	4.84
253.947	4.8
254.322	4.78
254.697	4.74
255.073	4.68
255.448	4.66
255.823	4.61
256.198	4.6
256.573	4.59
256.948	4.61
257.323	4.56
257.698	4.51
258.073	4.48
258.448	4.47
258.823	4.45
259.198	4.45
259.573	4.39
259.948	4.37
260.322	4.36
260.697	4.34
261.072	4.32
261.446	4.32
261.821	4.31
262.195	4.3
262.57	4.3
262.944	4.27
263.319	4.29
263.693	4.28
264.067	4.27
264.442	4.24
264.816	4.21
265.19	4.21
265.564	4.2
265.938	4.2
266.313	4.19
266.687	4.19
267.061	4.18
267.435	4.18
267.809	4.18
268.183	4.17
268.556	4.16
268.93	4.16
269.304	4.18
269.678	4.19
270.051	4.19
270.425	4.17
270.799	4.16
271.172	4.18
271.546	4.17
271.919	4.17
272.293	4.16
272.666	4.18
273.04	4.2
273.413	4.21
273.787	4.23
274.16	4.22
274.533	4.22
274.906	4.23
275.279	4.24
275.653	4.24
276.026	4.23
276.399	4.23
276.772	4.25
277.145	4.27
277.518	4.27
277.891	4.28
278.263	4.26
278.636	4.26
279.009	4.25
279.382	4.25
279.755	4.25
280.127	4.27
280.5	4.28
280.872	4.3
281.245	4.31
281.617	4.31
281.99	4.31
282.362	4.3
282.735	4.29
283.107	4.28
283.479	4.27
283.852	4.29
284.224	4.28
284.596	4.27
284.968	4.26
285.34	4.28
285.713	4.3
286.085	4.32
286.457	4.31
286.829	4.31
287.201	4.32
287.572	4.31
287.944	4.3
288.316	4.3
288.688	4.29
289.06	4.29
289.431	4.31
289.803	4.32
290.175	4.32
290.546	4.33
290.918	4.35
291.289	4.37
291.661	4.37
292.032	4.37
292.403	4.38
292.775	4.4
293.146	4.4
293.517	4.41
293.889	4.43
294.26	4.46
294.631	4.49
295.002	4.51
295.373	4.52
295.744	4.53
296.115	4.53
296.486	4.55
296.857	4.57
297.228	4.59
297.599	4.61
297.97	4.64
298.34	4.66
298.711	4.68
299.082	4.69
299.452	4.72
299.823	4.74
300.194	4.77
300.564	4.79
300.935	4.81
301.305	4.83
301.676	4.85
302.046	4.88
302.416	4.91
302.787	4.93
303.157	4.96
303.527	4.98
303.897	5.02
304.267	5.04
304.637	5.07
305.008	5.11
305.378	5.15
305.748	5.18
306.117	5.21
306.487	5.25
306.857	5.3
307.227	5.35
307.597	5.37
307.967	5.4
308.336	5.44
308.706	5.47
309.076	5.49
309.445	5.52
309.815	5.55
310.184	5.59
310.554	5.62
310.923	5.66
311.293	5.7
311.662	5.71
312.031	5.74
312.401	5.79
312.77	5.82
313.139	5.86
313.508	5.89
313.877	5.94
314.246	5.98
314.616	6.01
314.985	6.05
315.353	6.09
315.722	6.11
316.091	6.14
316.46	6.17
316.829	6.22
317.198	6.25
317.567	6.28
317.935	6.33
318.304	6.4
318.672	6.44
319.041	6.51
319.41	6.55
319.778	6.6
320.147	6.62
320.515	6.67
320.883	6.69
321.252	6.72
321.62	6.76
321.988	6.8
322.357	6.83
322.725	6.89
323.093	6.92
323.461	6.95
323.829	7
324.197	7.04
324.565	7.06
324.933	7.1
325.301	7.13
325.669	7.18
326.037	7.19
326.405	7.24
326.772	7.27
327.14	7.29
327.508	7.3
327.875	7.34
328.243	7.35
328.61	7.4
328.978	7.41
329.346	7.44
329.713	7.48
330.08	7.51
330.448	7.52
330.815	7.55
331.182	7.58
331.55	7.61
331.917	7.63
332.284	7.66
332.651	7.7
333.018	7.73
333.385	7.76
333.752	7.8
334.119	7.84
334.486	7.88
334.853	7.91
335.22	7.93
335.587	7.96
335.954	7.99
336.32	8.02
336.687	8.05
337.054	8.07
337.42	8.11
337.787	8.14
338.153	8.17
338.52	8.2
338.886	8.2
339.253	8.23
339.619	8.25
339.986	8.26
340.352	8.28
340.718	8.3
341.084	8.33
341.451	8.35
341.817	8.38
342.183	8.41
342.549	8.43
342.915	8.45
343.281	8.47
343.647	8.49
344.013	8.51
344.379	8.53
344.745	8.55
345.11	8.57
345.476	8.6
345.842	8.63
346.208	8.64
346.573	8.65
346.939	8.66
347.304	8.68
347.67	8.69
348.035	8.7
348.401	8.7
348.766	8.72
349.132	8.71
349.497	8.72
349.862	8.73
350.228	8.75
350.593	8.75
350.958	8.77
351.323	8.78
351.688	8.78
352.053	8.78
352.418	8.77
352.783	8.75
353.148	8.74
353.513	8.74
353.878	8.74
354.243	8.72
354.608	8.72
354.972	8.72
355.337	8.72
355.702	8.71
356.066	8.71
356.431	8.69
356.795	8.68
357.16	8.66
357.524	8.65
357.889	8.64
358.253	8.62
358.618	8.6
358.982	8.59
359.346	8.58
359.71	8.56
360.075	8.55
360.439	8.53
360.803	8.51
361.167	8.48
361.531	8.47
361.895	8.45
362.259	8.43
362.623	8.4
362.987	8.39
363.351	8.37
363.714	8.34
364.078	8.31
364.442	8.27
364.806	8.24
365.169	8.22
365.533	8.2
365.896	8.17
366.26	8.14
366.623	8.1
366.987	8.06
367.35	8.02
367.714	7.99
368.077	7.96
368.44	7.92
368.803	7.88
369.167	7.85
369.53	7.8
369.893	7.75
370.256	7.69
370.619	7.64
370.982	7.58
371.345	7.53
371.708	7.49
372.071	7.44
372.434	7.4
372.797	7.35
373.159	7.3
373.522	7.26
373.885	7.21
374.247	7.16
374.61	7.1
374.973	7.05
375.335	7.01
375.698	6.96
376.06	6.91
376.423	6.86
376.785	6.81
377.147	6.76
377.51	6.71
377.872	6.66
378.234	6.61
378.596	6.56
378.958	6.52
379.321	6.48
379.683	6.44
380.045	6.38
380.407	6.34
380.769	6.31
381.13	6.26
381.492	6.22
381.854	6.18
382.216	6.15
382.578	6.11
382.939	6.07
383.301	6.03
383.663	6
384.024	5.95
384.386	5.91
384.747	5.88
385.109	5.86
385.47	5.83
385.832	5.79
386.193	5.76
386.554	5.72
386.916	5.69
387.277	5.65
387.638	5.63
387.999	5.61
388.36	5.57
388.721	5.55
389.082	5.52
389.443	5.49
389.804	5.46
390.165	5.43
390.526	5.41
390.887	5.38
391.248	5.36
391.609	5.33
391.969	5.3
392.33	5.28
392.691	5.26
393.051	5.23
393.412	5.21
393.772	5.18
394.133	5.15
394.493	5.13
394.854	5.1
395.214	5.07
395.574	5.04
395.935	5.01
396.295	4.98
396.655	4.95
397.015	4.93
397.376	4.9
397.736	4.88
398.096	4.85
398.456	4.82
398.816	4.81
399.176	4.78
399.535	4.76
399.895	4.73
400.255	4.71
400.615	4.68
400.975	4.66
401.334	4.63
401.694	4.61
402.054	4.59
402.413	4.57
402.773	4.55
403.132	4.53
403.492	4.52
403.851	4.5
404.211	4.49
404.57	4.48
404.929	4.47
405.288	4.45
405.648	4.44
406.007	4.43
406.366	4.42
406.725	4.41
407.084	4.4
407.443	4.39
407.802	4.38
408.161	4.37
408.52	4.36
408.879	4.35
409.238	4.34
409.596	4.33
409.955	4.33
410.314	4.33
410.673	4.32
411.031	4.32
411.39	4.32
411.748	4.31
412.107	4.31
412.465	4.31
412.824	4.32
413.182	4.33
413.54	4.34
413.899	4.36
414.257	4.38
414.615	4.41
414.974	4.43
415.332	4.46
415.69	4.49
416.048	4.52
416.406	4.55
416.764	4.57
417.122	4.59
417.48	4.61
417.838	4.63
418.195	4.64
418.553	4.65
418.911	4.65
419.269	4.65
419.626	4.64
419.984	4.63
420.342	4.61
420.699	4.59
421.057	4.56
421.414	4.53
421.772	4.52
422.129	4.5
422.486	4.49
422.844	4.49
423.201	4.48
423.558	4.47
423.915	4.46
424.273	4.46
424.63	4.45
424.987	4.44
425.344	4.43
425.701	4.42
426.058	4.42
426.415	4.42
426.772	4.41
427.128	4.4
427.485	4.38
427.842	4.37
428.199	4.35
428.555	4.33
428.912	4.31
429.269	4.28
429.625	4.25
429.982	4.22
430.338	4.19
430.695	4.16
431.051	4.12
431.407	4.1
431.764	4.08
432.12	4.06
432.476	4.05
432.832	4.04
433.189	4.04
433.545	4.05
433.901	4.06
434.257	4.08
434.613	4.1
434.969	4.12
435.325	4.15
435.681	4.19
436.036	4.21
436.392	4.23
436.748	4.25
437.104	4.26
437.459	4.27
437.815	4.29
438.171	4.31
438.526	4.34
438.882	4.36
439.237	4.4
439.593	4.43
439.948	4.46
440.304	4.5
440.659	4.52
441.014	4.54
441.369	4.56
441.725	4.58
442.08	4.59
442.435	4.6
442.79	4.6
443.145	4.6
443.5	4.6
443.855	4.6
444.21	4.59
444.565	4.59
444.92	4.58
445.275	4.57
445.629	4.55
445.984	4.54
446.339	4.53
446.693	4.52
447.048	4.5
447.403	4.48
447.757	4.46
448.112	4.44
448.466	4.41
448.82	4.39
449.175	4.36
449.529	4.35
449.883	4.33
450.238	4.3
450.592	4.29
450.946	4.28
451.3	4.27
451.654	4.28
452.008	4.27
452.362	4.28
452.716	4.28
453.07	4.27
453.424	4.26
453.778	4.25
454.132	4.24
454.486	4.23
454.839	4.21
455.193	4.19
455.547	4.18
455.9	4.14
456.254	4.13
456.607	4.1
456.961	4.07
457.314	4.05
457.668	4.04
458.021	4.04
458.375	4.04
458.728	4.04
459.081	4.05
459.434	4.06
459.787	4.08
460.141	4.09
460.494	4.1
460.847	4.11
461.2	4.12
461.553	4.13
461.906	4.14
462.259	4.15
462.611	4.15
462.964	4.16
463.317	4.17
463.67	4.18
464.022	4.18
464.375	4.19
464.728	4.2
465.08	4.2
465.433	4.21
465.785	4.21
466.138	4.21
466.49	4.2
466.843	4.19
467.195	4.17
467.547	4.16
467.899	4.15
468.252	4.12
468.604	4.11
468.956	4.1
469.308	4.09
469.66	4.09
470.012	4.09
470.364	4.11
470.716	4.12
471.068	4.14
471.42	4.17
471.772	4.19
472.123	4.21
472.475	4.22
472.827	4.23
473.178	4.24
473.53	4.25
473.882	4.26
474.233	4.28
474.585	4.32
474.936	4.38
475.288	4.47
475.639	4.58
475.99	4.7
476.342	4.85
476.693	5
477.044	5.16
477.395	5.33
477.746	5.49
478.097	5.66
478.448	5.83
478.8	5.99
479.15	6.15
479.501	6.29
479.852	6.42
480.203	6.54
480.554	6.66
480.905	6.76
481.255	6.87
481.606	6.97
481.957	7.06
482.307	7.15
482.658	7.24
483.009	7.32
483.359	7.4
483.709	7.47
484.06	7.54
484.41	7.61
484.761	7.68
485.111	7.75
485.461	7.81
485.811	7.86
486.162	7.92
486.512	7.96
486.862	8
487.212	8.03
487.562	8.04
487.912	8.06
488.262	8.06
488.612	8.06
488.961	8.04
489.311	7.99
489.661	7.93
490.011	7.85
490.36	7.75
490.71	7.63
491.06	7.51
491.409	7.38
491.759	7.24
492.108	7.1
492.458	6.95
492.807	6.8
493.157	6.65
493.506	6.51
493.855	6.37
494.204	6.25
494.554	6.13
494.903	6.02
495.252	5.92
495.601	5.83
495.95	5.74
496.299	5.66
496.648	5.59
496.997	5.53
497.346	5.47
497.695	5.41
498.043	5.36
498.392	5.31
498.741	5.27
499.09	5.23
499.438	5.21
499.787	5.18
500.135	5.17
500.484	5.17
500.832	5.18
501.181	5.2
501.529	5.25
501.878	5.3
502.226	5.37
502.574	5.44
502.923	5.52
503.271	5.61
503.619	5.71
503.967	5.81
504.315	5.91
504.663	6.01
505.011	6.12
505.359	6.24
505.707	6.36
506.055	6.48
506.403	6.61
506.751	6.75
507.098	6.9
507.446	7.06
507.794	7.23
508.141	7.41
508.489	7.6
508.837	7.79
509.184	7.99
509.531	8.2
509.879	8.42
510.226	8.66
510.574	8.91
510.921	9.16
511.268	9.43
511.616	9.71
511.963	10
512.31	10.3
512.657	10.6
513.004	10.9
513.351	11.19
513.698	11.48
514.045	11.74
514.392	12.01
514.739	12.26
515.086	12.51
515.432	12.76
515.779	13.01
516.126	13.28
516.473	13.57
516.819	13.88
517.166	14.21
517.512	14.56
517.859	14.93
518.205	15.32
518.552	15.74
518.898	16.2
519.245	16.71
519.591	17.3
519.937	17.99
520.283	18.78
520.629	19.62
520.976	20.5
521.322	21.41
521.668	22.33
522.014	23.25
522.36	24.17
522.706	25.07
523.052	25.96
523.398	26.81
523.743	27.59
524.089	28.32
524.435	29
524.781	29.67
525.126	30.33
525.472	30.98
525.817	31.61
526.163	32.22
526.509	32.83
526.854	33.42
527.199	34.01
527.545	34.6
527.89	35.21
528.235	35.8
528.581	36.37
528.926	36.91
529.271	37.41
529.616	37.89
529.961	38.36
530.306	38.77
530.651	39.16
530.996	39.52
531.341	39.85
531.686	40.16
532.031	40.45
532.376	40.77
532.721	41.11
533.065	41.48
533.41	41.85
533.755	42.19
534.099	42.47
534.444	42.7
534.788	42.89
535.133	43.06
535.477	43.2
535.822	43.29
536.166	43.34
536.51	43.31
536.855	43.23
537.199	43.1
537.543	42.96
537.887	42.87
538.231	42.81
538.576	42.77
538.92	42.7
539.264	42.61
539.608	42.5
539.951	42.36
540.295	42.22
540.639	42.05
540.983	41.87
541.327	41.66
541.671	41.45
542.014	41.28
542.358	41.12
542.701	41.08
543.045	41.08
543.389	41.12
543.732	41.19
544.075	41.28
544.419	41.38
544.762	41.49
545.105	41.62
545.449	41.76
545.792	41.91
546.135	42.07
546.478	42.16
546.821	42.2
547.165	42.17
547.508	42.07
547.851	41.9
548.194	41.68
548.536	41.42
548.879	41.11
549.222	40.77
549.565	40.42
549.908	40.08
550.25	39.76
550.593	39.52
550.936	39.35
551.278	39.25
551.621	39.2
551.963	39.17
552.306	39.16
552.648	39.18
552.991	39.25
553.333	39.33
553.675	39.46
554.017	39.61
554.36	39.8
554.702	40.02
555.044	40.28
555.386	40.6
555.728	40.92
556.07	41.19
556.412	41.47
556.754	41.63
557.096	41.79
557.438	41.94
557.78	42.09
558.121	42.23
558.463	42.37
558.805	42.51
559.147	42.66
559.488	42.8
559.83	42.94
560.171	43.08
560.513	43.21
560.854	43.34
561.196	43.48
561.537	43.61
561.878	43.74
562.22	43.87
562.561	43.99
562.902	44.11
563.243	44.23
563.584	44.36
563.925	44.48
564.266	44.59
564.607	44.7
564.948	44.82
565.289	44.94
565.63	45.05
565.971	45.16
566.312	45.27
566.653	45.38
566.993	45.49
567.334	45.59
567.675	45.68
568.015	45.78
568.356	45.87
568.696	45.96
569.037	46.05
569.377	46.13
569.718	46.22
570.058	46.3
570.398	46.37
570.739	46.44
571.079	46.5
571.419	46.56
571.759	46.63
572.099	46.7
572.439	46.77
572.779	46.82
573.119	46.88
573.459	46.94
573.799	47
574.139	47.06
574.479	47.12
574.819	47.17
575.158	47.22
575.498	47.28
575.838	47.33
576.177	47.37
576.517	47.42
576.856	47.47
577.196	47.53
577.535	47.58
577.875	47.62
578.214	47.68
578.553	47.74
578.893	47.8
579.232	47.83
579.571	47.88
579.91	47.93
580.25	47.98
580.589	48.02
580.928	48.06
581.267	48.11
581.606	48.16
581.945	48.21
582.283	48.26
582.622	48.32
582.961	48.38
583.3	48.45
583.639	48.51
583.977	48.57
584.316	48.63
584.654	48.69
584.993	48.75
585.332	48.81
585.67	48.87
586.008	48.92
586.347	48.98
586.685	49.05
587.024	49.11
587.362	49.17
587.7	49.22
588.038	49.27
588.376	49.33
588.715	49.39
589.053	49.46
589.391	49.53
589.729	49.6
590.067	49.68
590.404	49.75
590.742	49.82
591.08	49.87
591.418	49.93
591.756	49.98
592.093	50.03
592.431	50.07
592.769	50.11
593.106	50.15
593.444	50.2
593.781	50.25
594.119	50.28
594.456	50.34
594.793	50.39
595.131	50.43
595.468	50.48
595.805	50.52
596.143	50.57
596.48	50.63
596.817	50.67
597.154	50.71
597.491	50.77
597.828	50.81
598.165	50.86
598.502	50.91
598.839	50.96
599.176	51.01
599.512	51.05
599.849	51.1
600.186	51.13
600.523	51.16
600.859	51.19
601.196	51.21
601.532	51.26
601.869	51.29
602.205	51.32
602.542	51.36
602.878	51.39
603.215	51.42
603.551	51.44
603.887	51.46
604.223	51.5
604.56	51.53
604.896	51.56
605.232	51.59
605.568	51.62
605.904	51.65
606.24	51.68
606.576	51.7
606.912	51.73
607.248	51.75
607.583	51.76
607.919	51.8
608.255	51.82
608.591	51.84
608.926	51.87
609.262	51.89
609.597	51.92
609.933	51.92
610.268	51.93
610.604	51.94
610.939	51.96
611.275	51.96
611.61	51.98
611.945	51.99
612.281	52
612.616	52.02
612.951	52.04
613.286	52.06
613.621	52.08
613.956	52.1
614.291	52.13
614.626	52.15
614.961	52.17
615.296	52.19
615.631	52.22
615.966	52.23
616.3	52.26
616.635	52.27
616.97	52.29
617.304	52.3
617.639	52.33
617.973	52.34
618.308	52.36
618.642	52.38
618.977	52.4
619.311	52.42
619.646	52.44
619.98	52.46
620.314	52.49
620.648	52.52
620.983	52.54
621.317	52.57
621.651	52.58
621.985	52.61
622.319	52.64
622.653	52.66
622.987	52.67
623.321	52.7
623.655	52.72
623.988	52.75
624.322	52.77
624.656	52.81
624.99	52.83
625.323	52.84
625.657	52.86
625.99	52.88
626.324	52.89
626.657	52.89
626.991	52.9
627.324	52.91
627.658	52.92
627.991	52.95
628.324	52.95
628.657	52.97
628.991	52.99
629.324	53.02
629.657	53.04
629.99	53.07
630.323	53.08
630.656	53.11
630.989	53.12
631.322	53.14
631.655	53.15
631.987	53.17
632.32	53.18
632.653	53.19
632.986	53.22
633.318	53.23
633.651	53.24
633.984	53.25
634.316	53.26
634.649	53.28
634.981	53.31
635.313	53.33
635.646	53.35
635.978	53.37
636.31	53.39
636.643	53.4
636.975	53.41
637.307	53.44
637.639	53.46
637.971	53.49
638.303	53.5
638.635	53.51
638.967	53.54
639.299	53.56
639.631	53.58
639.963	53.61
640.295	53.65
640.626	53.68
640.958	53.7
641.29	53.73
641.621	53.74
641.953	53.77
642.285	53.79
642.616	53.82
642.948	53.83
643.279	53.85
643.61	53.86
643.942	53.87
644.273	53.88
644.604	53.9
644.936	53.92
645.267	53.95
645.598	53.97
645.929	53.98
646.26	54.01
646.591	54.02
646.922	54.03
647.253	54.05
647.584	54.08
647.915	54.1
648.245	54.12
648.576	54.13
648.907	54.14
649.238	54.13
649.568	54.14
649.899	54.14
650.229	54.15
650.56	54.15
650.89	54.17
651.221	54.18
651.551	54.2
651.882	54.21
652.212	54.22
652.542	54.24
652.872	54.25
653.203	54.27
653.533	54.27
653.863	54.27
654.193	54.28
654.523	54.29
654.853	54.31
655.183	54.34
655.513	54.36
655.843	54.38
656.172	54.39
656.502	54.4
656.832	54.41
657.162	54.42
657.491	54.43
657.821	54.44
658.15	54.46
658.48	54.48
658.809	54.48
659.139	54.48
659.468	54.49
659.798	54.5
660.127	54.5
660.456	54.51
660.785	54.54
661.115	54.53
661.444	54.55
661.773	54.55
662.102	54.55
662.431	54.56
662.76	54.61
663.089	54.63
663.418	54.64
663.747	54.65
664.076	54.68
664.404	54.7
664.733	54.72
665.062	54.73
665.39	54.75
665.719	54.77
666.048	54.78
666.376	54.79
666.705	54.81
667.033	54.82
667.362	54.84
667.69	54.87
668.018	54.88
668.347	54.89
668.675	54.89
669.003	54.89
669.331	54.88
669.659	54.87
669.987	54.89
670.315	54.9
670.643	54.92
