Data from UWBM41002_Reflection_00003.txt Node
Date: Sun May 02 14:13:31 EDT 2021
User: vgr7
Spectrometer: USB2G7710
Scans to average: 10
Trigger mode: 4
Integration Time (sec): 1.000000E-1
Electric dark correction enabled: true
Boxcar width: 20
XAxis mode: Wavelengths
Number of Pixels in Spectrum: 2048
>>>>>Begin Spectral Data<<<<<
177.721	138.84
178.105	104.41
178.488	123.29
178.871	107.19
179.254	95.09
179.636	71.36
180.019	63.18
180.402	57.58
180.785	44.33
181.168	36.8
181.55	37.85
181.933	41.98
182.316	38.26
182.698	35.48
183.081	32.8
183.463	28.42
183.846	25.38
184.228	28.86
184.611	26.35
184.993	23.03
185.376	21.52
185.758	20.81
186.14	23.5
186.522	20.9
186.904	22.36
187.287	20.13
187.669	17.63
188.051	15.66
188.433	16.05
188.815	14.75
189.197	16.83
189.579	17.71
189.961	17.65
190.342	15.83
190.724	17.03
191.106	16.44
191.488	14.07
191.869	12.71
192.251	10.54
192.633	9.06
193.014	7.06
193.396	4.51
193.777	7.06
194.159	6.64
194.54	5.18
194.922	2.15
195.303	0.78
195.684	-0.7
196.065	-2.87
196.447	-0.38
196.828	1.01
197.209	-1.07
197.59	-3.25
197.971	-3.07
198.352	-2.32
198.733	-1.19
199.114	-1.93
199.495	-0.43
199.876	-1.23
200.257	-1.58
200.638	-3.67
201.018	-2.51
201.399	-0.78
201.78	-1.66
202.16	-2.48
202.541	-3.57
202.922	-3.67
203.302	-3.01
203.683	-2.72
204.063	-2.94
204.444	-4.25
204.824	-4.28
205.204	-5.59
205.585	-4.23
205.965	-2.96
206.345	-2.7
206.725	-2.46
207.106	-1.73
207.486	-1.28
207.866	-0.31
208.246	-0.24
208.626	0
209.006	1.05
209.386	0.31
209.766	-0.06
210.145	-0.18
210.525	1.73
210.905	3.53
211.285	2.73
211.664	4.75
212.044	3.06
212.424	2.57
212.803	3.32
213.183	2.26
213.562	3.23
213.942	3.2
214.321	2.69
214.701	2.75
215.08	1.62
215.459	0.67
215.838	-0.05
216.218	1.91
216.597	0.68
216.976	0.45
217.355	1.37
217.734	1.68
218.113	1.09
218.492	0.5
218.871	0.22
219.25	0.22
219.629	0.22
220.008	0.62
220.387	-1.22
220.766	0.29
221.144	-0.14
221.523	0.36
221.902	0.65
222.28	0.38
222.659	0.8
223.037	-0.15
223.416	-0.03
223.794	0.28
224.173	0.43
224.551	-0.09
224.929	0.64
225.308	0.77
225.686	1.17
226.064	1.32
226.442	1.12
226.821	2.01
227.199	2.13
227.577	2.41
227.955	2.71
228.333	2.86
228.711	2.79
229.089	2.49
229.467	2.41
229.845	2.03
230.222	2.02
230.6	2.41
230.978	2.77
231.356	3.19
231.733	2.94
232.111	3.11
232.488	2.97
232.866	2.64
233.243	2.77
233.621	3.32
233.998	3.43
234.376	3.65
234.753	3.51
235.13	3.57
235.508	3.87
235.885	4.09
236.262	4.03
236.639	4.1
237.016	4.14
237.393	4.16
237.77	4.14
238.147	4.07
238.524	4.15
238.901	4.16
239.278	4.19
239.655	4.31
240.032	4.34
240.409	4.35
240.785	4.4
241.162	4.45
241.539	4.44
241.915	4.51
242.292	4.51
242.668	4.47
243.045	4.47
243.421	4.42
243.798	4.41
244.174	4.47
244.551	4.44
244.927	4.44
245.303	4.5
245.679	4.56
246.056	4.52
246.432	4.5
246.808	4.48
247.184	4.5
247.56	4.52
247.936	4.53
248.312	4.53
248.688	4.54
249.064	4.49
249.44	4.51
249.815	4.47
250.191	4.46
250.567	4.47
250.943	4.45
251.318	4.44
251.694	4.46
252.069	4.43
252.445	4.42
252.82	4.41
253.196	4.42
253.571	4.42
253.947	4.39
254.322	4.38
254.697	4.39
255.073	4.36
255.448	4.36
255.823	4.31
256.198	4.29
256.573	4.27
256.948	4.25
257.323	4.21
257.698	4.17
258.073	4.16
258.448	4.14
258.823	4.13
259.198	4.12
259.573	4.1
259.948	4.11
260.322	4.1
260.697	4.09
261.072	4.04
261.446	4.04
261.821	4.03
262.195	4.03
262.57	4.03
262.944	4.02
263.319	4.04
263.693	4.04
264.067	4.03
264.442	4.03
264.816	4.01
265.19	4.02
265.564	4.03
265.938	4.03
266.313	4.02
266.687	4.03
267.061	4
267.435	4
267.809	3.98
268.183	3.98
268.556	3.97
268.93	3.96
269.304	3.99
269.678	3.99
270.051	3.96
270.425	3.92
270.799	3.92
271.172	3.93
271.546	3.94
271.919	3.94
272.293	3.96
272.666	3.95
273.04	3.96
273.413	3.99
273.787	4
274.16	4
274.533	4.01
274.906	4.02
275.279	4.03
275.653	4.05
276.026	4.05
276.399	4.08
276.772	4.09
277.145	4.09
277.518	4.1
277.891	4.12
278.263	4.1
278.636	4.09
279.009	4.09
279.382	4.08
279.755	4.1
280.127	4.12
280.5	4.13
280.872	4.15
281.245	4.14
281.617	4.13
281.99	4.11
282.362	4.11
282.735	4.12
283.107	4.11
283.479	4.1
283.852	4.12
284.224	4.13
284.596	4.12
284.968	4.12
285.34	4.12
285.713	4.14
286.085	4.14
286.457	4.14
286.829	4.14
287.201	4.14
287.572	4.13
287.944	4.13
288.316	4.14
288.688	4.13
289.06	4.14
289.431	4.14
289.803	4.15
290.175	4.14
290.546	4.16
290.918	4.17
291.289	4.17
291.661	4.17
292.032	4.16
292.403	4.19
292.775	4.19
293.146	4.18
293.517	4.19
293.889	4.19
294.26	4.21
294.631	4.23
295.002	4.24
295.373	4.24
295.744	4.26
296.115	4.26
296.486	4.29
296.857	4.3
297.228	4.31
297.599	4.32
297.97	4.33
298.34	4.35
298.711	4.36
299.082	4.36
299.452	4.37
299.823	4.39
300.194	4.4
300.564	4.41
300.935	4.42
301.305	4.43
301.676	4.43
302.046	4.43
302.416	4.44
302.787	4.43
303.157	4.44
303.527	4.45
303.897	4.43
304.267	4.42
304.637	4.44
305.008	4.44
305.378	4.45
305.748	4.45
306.117	4.44
306.487	4.48
306.857	4.49
307.227	4.49
307.597	4.48
307.967	4.48
308.336	4.48
308.706	4.48
309.076	4.48
309.445	4.48
309.815	4.46
310.184	4.46
310.554	4.45
310.923	4.44
311.293	4.42
311.662	4.41
312.031	4.42
312.401	4.43
312.77	4.43
313.139	4.43
313.508	4.44
313.877	4.44
314.246	4.44
314.616	4.42
314.985	4.41
315.353	4.41
315.722	4.4
316.091	4.41
316.46	4.39
316.829	4.39
317.198	4.39
317.567	4.38
317.935	4.4
318.304	4.39
318.672	4.39
319.041	4.41
319.41	4.4
319.778	4.39
320.147	4.37
320.515	4.36
320.883	4.33
321.252	4.3
321.62	4.3
321.988	4.28
322.357	4.27
322.725	4.27
323.093	4.27
323.461	4.26
323.829	4.28
324.197	4.26
324.565	4.24
324.933	4.25
325.301	4.23
325.669	4.24
326.037	4.23
326.405	4.24
326.772	4.24
327.14	4.21
327.508	4.2
327.875	4.2
328.243	4.19
328.61	4.17
328.978	4.17
329.346	4.16
329.713	4.16
330.08	4.16
330.448	4.14
330.815	4.13
331.182	4.11
331.55	4.12
331.917	4.1
332.284	4.1
332.651	4.1
333.018	4.09
333.385	4.11
333.752	4.11
334.119	4.11
334.486	4.11
334.853	4.1
335.22	4.11
335.587	4.12
335.954	4.13
336.32	4.14
336.687	4.11
337.054	4.11
337.42	4.12
337.787	4.11
338.153	4.11
338.52	4.11
338.886	4.1
339.253	4.1
339.619	4.11
339.986	4.11
340.352	4.12
340.718	4.11
341.084	4.12
341.451	4.12
341.817	4.12
342.183	4.13
342.549	4.12
342.915	4.13
343.281	4.12
343.647	4.12
344.013	4.12
344.379	4.14
344.745	4.14
345.11	4.14
345.476	4.15
345.842	4.15
346.208	4.15
346.573	4.14
346.939	4.15
347.304	4.15
347.67	4.15
348.035	4.16
348.401	4.15
348.766	4.16
349.132	4.16
349.497	4.17
349.862	4.17
350.228	4.17
350.593	4.17
350.958	4.17
351.323	4.17
351.688	4.18
352.053	4.19
352.418	4.19
352.783	4.19
353.148	4.19
353.513	4.2
353.878	4.2
354.243	4.21
354.608	4.21
354.972	4.22
355.337	4.21
355.702	4.22
356.066	4.22
356.431	4.22
356.795	4.22
357.16	4.22
357.524	4.22
357.889	4.22
358.253	4.23
358.618	4.22
358.982	4.23
359.346	4.23
359.71	4.23
360.075	4.24
360.439	4.23
360.803	4.24
361.167	4.25
361.531	4.26
361.895	4.26
362.259	4.25
362.623	4.25
362.987	4.24
363.351	4.24
363.714	4.24
364.078	4.24
364.442	4.24
364.806	4.23
365.169	4.23
365.533	4.23
365.896	4.23
366.26	4.23
366.623	4.23
366.987	4.22
367.35	4.22
367.714	4.22
368.077	4.22
368.44	4.22
368.803	4.22
369.167	4.22
369.53	4.22
369.893	4.21
370.256	4.22
370.619	4.21
370.982	4.22
371.345	4.22
371.708	4.22
372.071	4.22
372.434	4.22
372.797	4.22
373.159	4.23
373.522	4.24
373.885	4.24
374.247	4.24
374.61	4.23
374.973	4.23
375.335	4.23
375.698	4.23
376.06	4.22
376.423	4.22
376.785	4.22
377.147	4.22
377.51	4.23
377.872	4.23
378.234	4.23
378.596	4.22
378.958	4.22
379.321	4.22
379.683	4.23
380.045	4.22
380.407	4.23
380.769	4.23
381.13	4.22
381.492	4.23
381.854	4.23
382.216	4.24
382.578	4.24
382.939	4.24
383.301	4.23
383.663	4.23
384.024	4.23
384.386	4.23
384.747	4.23
385.109	4.23
385.47	4.23
385.832	4.22
386.193	4.22
386.554	4.22
386.916	4.22
387.277	4.21
387.638	4.21
387.999	4.21
388.36	4.2
388.721	4.2
389.082	4.2
389.443	4.2
389.804	4.2
390.165	4.2
390.526	4.2
390.887	4.2
391.248	4.2
391.609	4.2
391.969	4.2
392.33	4.2
392.691	4.2
393.051	4.2
393.412	4.21
393.772	4.21
394.133	4.2
394.493	4.2
394.854	4.2
395.214	4.2
395.574	4.2
395.935	4.21
396.295	4.2
396.655	4.2
397.015	4.2
397.376	4.21
397.736	4.21
398.096	4.21
398.456	4.22
398.816	4.22
399.176	4.22
399.535	4.23
399.895	4.23
400.255	4.23
400.615	4.23
400.975	4.23
401.334	4.24
401.694	4.24
402.054	4.25
402.413	4.25
402.773	4.25
403.132	4.25
403.492	4.25
403.851	4.25
404.211	4.26
404.57	4.26
404.929	4.26
405.288	4.26
405.648	4.26
406.007	4.27
406.366	4.27
406.725	4.27
407.084	4.28
407.443	4.28
407.802	4.28
408.161	4.28
408.52	4.29
408.879	4.29
409.238	4.3
409.596	4.3
409.955	4.3
410.314	4.3
410.673	4.3
411.031	4.31
411.39	4.31
411.748	4.32
412.107	4.33
412.465	4.34
412.824	4.37
413.182	4.39
413.54	4.42
413.899	4.45
414.257	4.48
414.615	4.53
414.974	4.56
415.332	4.6
415.69	4.65
416.048	4.69
416.406	4.73
416.764	4.77
417.122	4.8
417.48	4.84
417.838	4.87
418.195	4.9
418.553	4.93
418.911	4.95
419.269	4.96
419.626	4.96
419.984	4.95
420.342	4.94
420.699	4.93
421.057	4.91
421.414	4.89
421.772	4.88
422.129	4.87
422.486	4.87
422.844	4.87
423.201	4.86
423.558	4.86
423.915	4.86
424.273	4.86
424.63	4.87
424.987	4.87
425.344	4.87
425.701	4.87
426.058	4.87
426.415	4.87
426.772	4.87
427.128	4.87
427.485	4.86
427.842	4.85
428.199	4.83
428.555	4.82
428.912	4.8
429.269	4.77
429.625	4.74
429.982	4.71
430.338	4.68
430.695	4.66
431.051	4.62
431.407	4.6
431.764	4.58
432.12	4.56
432.476	4.55
432.832	4.54
433.189	4.54
433.545	4.54
433.901	4.55
434.257	4.57
434.613	4.6
434.969	4.63
435.325	4.66
435.681	4.7
436.036	4.73
436.392	4.75
436.748	4.77
437.104	4.78
437.459	4.81
437.815	4.83
438.171	4.85
438.526	4.88
438.882	4.92
439.237	4.96
439.593	5
439.948	5.04
440.304	5.08
440.659	5.11
441.014	5.13
441.369	5.16
441.725	5.18
442.08	5.2
442.435	5.22
442.79	5.23
443.145	5.23
443.5	5.23
443.855	5.23
444.21	5.23
444.565	5.23
444.92	5.22
445.275	5.22
445.629	5.21
445.984	5.2
446.339	5.18
446.693	5.17
447.048	5.15
447.403	5.14
447.757	5.11
448.112	5.09
448.466	5.07
448.82	5.05
449.175	5.02
449.529	5
449.883	4.98
450.238	4.95
450.592	4.95
450.946	4.94
451.3	4.93
451.654	4.94
452.008	4.94
452.362	4.95
452.716	4.95
453.07	4.95
453.424	4.94
453.778	4.93
454.132	4.92
454.486	4.91
454.839	4.9
455.193	4.87
455.547	4.86
455.9	4.83
456.254	4.81
456.607	4.78
456.961	4.75
457.314	4.72
457.668	4.71
458.021	4.71
458.375	4.7
458.728	4.7
459.081	4.7
459.434	4.71
459.787	4.72
460.141	4.73
460.494	4.74
460.847	4.75
461.2	4.75
461.553	4.76
461.906	4.76
462.259	4.77
462.611	4.77
462.964	4.77
463.317	4.78
463.67	4.78
464.022	4.8
464.375	4.8
464.728	4.81
465.08	4.81
465.433	4.81
465.785	4.8
466.138	4.79
466.49	4.77
466.843	4.75
467.195	4.72
467.547	4.69
467.899	4.66
468.252	4.63
468.604	4.6
468.956	4.58
469.308	4.56
469.66	4.56
470.012	4.55
470.364	4.55
470.716	4.55
471.068	4.56
471.42	4.59
471.772	4.61
472.123	4.62
472.475	4.63
472.827	4.64
473.178	4.65
473.53	4.66
473.882	4.68
474.233	4.71
474.585	4.75
474.936	4.82
475.288	4.91
475.639	5.04
475.99	5.19
476.342	5.36
476.693	5.54
477.044	5.72
477.395	5.92
477.746	6.11
478.097	6.31
478.448	6.51
478.8	6.7
479.15	6.88
479.501	7.05
479.852	7.2
480.203	7.35
480.554	7.49
480.905	7.62
481.255	7.75
481.606	7.88
481.957	8
482.307	8.11
482.658	8.21
483.009	8.31
483.359	8.41
483.709	8.5
484.06	8.59
484.41	8.68
484.761	8.77
485.111	8.85
485.461	8.93
485.811	9.01
486.162	9.07
486.512	9.13
486.862	9.18
487.212	9.21
487.562	9.23
487.912	9.25
488.262	9.25
488.612	9.25
488.961	9.23
489.311	9.18
489.661	9.1
490.011	9
490.36	8.88
490.71	8.74
491.06	8.59
491.409	8.44
491.759	8.26
492.108	8.09
492.458	7.9
492.807	7.71
493.157	7.53
493.506	7.35
493.855	7.17
494.204	7.02
494.554	6.86
494.903	6.72
495.252	6.58
495.601	6.45
495.95	6.32
496.299	6.2
496.648	6.08
496.997	5.98
497.346	5.87
497.695	5.77
498.043	5.67
498.392	5.58
498.741	5.48
499.09	5.4
499.438	5.31
499.787	5.23
500.135	5.15
500.484	5.08
500.832	5.02
501.181	4.97
501.529	4.95
501.878	4.93
502.226	4.92
502.574	4.91
502.923	4.91
503.271	4.9
503.619	4.9
503.967	4.9
504.315	4.89
504.663	4.88
505.011	4.88
505.359	4.87
505.707	4.87
506.055	4.86
506.403	4.86
506.751	4.87
507.098	4.87
507.446	4.88
507.794	4.88
508.141	4.9
508.489	4.91
508.837	4.92
509.184	4.93
509.531	4.95
509.879	4.96
510.226	4.97
510.574	4.99
510.921	5.01
511.268	5.03
511.616	5.05
511.963	5.07
512.31	5.1
512.657	5.12
513.004	5.14
513.351	5.16
513.698	5.17
514.045	5.18
514.392	5.19
514.739	5.19
515.086	5.19
515.432	5.18
515.779	5.18
516.126	5.17
516.473	5.17
516.819	5.18
517.166	5.18
517.512	5.19
517.859	5.2
518.205	5.22
518.552	5.25
518.898	5.28
519.245	5.33
519.591	5.39
519.937	5.47
520.283	5.57
520.629	5.69
520.976	5.81
521.322	5.95
521.668	6.08
522.014	6.22
522.36	6.36
522.706	6.5
523.052	6.63
523.398	6.75
523.743	6.85
524.089	6.94
524.435	7.02
524.781	7.09
525.126	7.16
525.472	7.22
525.817	7.28
526.163	7.34
526.509	7.39
526.854	7.44
527.199	7.49
527.545	7.54
527.89	7.6
528.235	7.66
528.581	7.71
528.926	7.76
529.271	7.8
529.616	7.84
529.961	7.87
530.306	7.91
530.651	7.94
530.996	7.96
531.341	7.97
531.686	7.98
532.031	7.98
532.376	7.98
532.721	7.99
533.065	7.99
533.41	8
533.755	8
534.099	7.98
534.444	7.95
534.788	7.91
535.133	7.87
535.477	7.81
535.822	7.76
536.166	7.69
536.51	7.61
536.855	7.53
537.199	7.44
537.543	7.35
537.887	7.27
538.231	7.21
538.576	7.14
538.92	7.08
539.264	7.02
539.608	6.95
539.951	6.88
540.295	6.81
540.639	6.74
540.983	6.66
541.327	6.59
541.671	6.51
542.014	6.44
542.358	6.37
542.701	6.32
543.045	6.28
543.389	6.26
543.732	6.23
544.075	6.21
544.419	6.19
544.762	6.17
545.105	6.16
545.449	6.14
545.792	6.13
546.135	6.12
546.478	6.11
546.821	6.08
547.165	6.04
547.508	6
547.851	5.94
548.194	5.88
548.536	5.81
548.879	5.73
549.222	5.65
549.565	5.57
549.908	5.49
550.25	5.41
550.593	5.35
550.936	5.29
551.278	5.25
551.621	5.21
551.963	5.17
552.306	5.14
552.648	5.12
552.991	5.1
553.333	5.09
553.675	5.08
554.017	5.07
554.36	5.07
554.702	5.07
555.044	5.09
555.386	5.1
555.728	5.12
556.07	5.13
556.412	5.16
556.754	5.16
557.096	5.16
557.438	5.16
557.78	5.16
558.121	5.17
558.463	5.17
558.805	5.17
559.147	5.17
559.488	5.17
559.83	5.18
560.171	5.18
560.513	5.19
560.854	5.19
561.196	5.2
561.537	5.2
561.878	5.2
562.22	5.2
562.561	5.2
562.902	5.2
563.243	5.2
563.584	5.21
563.925	5.21
564.266	5.21
564.607	5.21
564.948	5.21
565.289	5.21
565.63	5.21
565.971	5.22
566.312	5.22
566.653	5.22
566.993	5.23
567.334	5.23
567.675	5.23
568.015	5.23
568.356	5.24
568.696	5.24
569.037	5.24
569.377	5.24
569.718	5.25
570.058	5.25
570.398	5.25
570.739	5.25
571.079	5.25
571.419	5.25
571.759	5.25
572.099	5.25
572.439	5.25
572.779	5.25
573.119	5.25
573.459	5.26
573.799	5.25
574.139	5.25
574.479	5.25
574.819	5.25
575.158	5.25
575.498	5.25
575.838	5.25
576.177	5.25
576.517	5.25
576.856	5.26
577.196	5.25
577.535	5.25
577.875	5.25
578.214	5.25
578.553	5.25
578.893	5.25
579.232	5.25
579.571	5.25
579.91	5.26
580.25	5.26
580.589	5.26
580.928	5.26
581.267	5.26
581.606	5.25
581.945	5.25
582.283	5.25
582.622	5.26
582.961	5.26
583.3	5.26
583.639	5.26
583.977	5.25
584.316	5.26
584.654	5.26
584.993	5.26
585.332	5.26
585.67	5.27
586.008	5.27
586.347	5.27
586.685	5.28
587.024	5.27
587.362	5.27
587.7	5.27
588.038	5.28
588.376	5.28
588.715	5.28
589.053	5.28
589.391	5.27
589.729	5.28
590.067	5.28
590.404	5.28
590.742	5.29
591.08	5.29
591.418	5.3
591.756	5.3
592.093	5.31
592.431	5.3
592.769	5.31
593.106	5.31
593.444	5.31
593.781	5.31
594.119	5.31
594.456	5.31
594.793	5.31
595.131	5.32
595.468	5.32
595.805	5.32
596.143	5.32
596.48	5.32
596.817	5.32
597.154	5.32
597.491	5.32
597.828	5.33
598.165	5.33
598.502	5.33
598.839	5.33
599.176	5.34
599.512	5.34
599.849	5.34
600.186	5.34
600.523	5.34
600.859	5.35
601.196	5.34
601.532	5.35
601.869	5.35
602.205	5.35
602.542	5.35
602.878	5.36
603.215	5.36
603.551	5.36
603.887	5.36
604.223	5.36
604.56	5.36
604.896	5.36
605.232	5.36
605.568	5.36
605.904	5.36
606.24	5.37
606.576	5.37
606.912	5.37
607.248	5.37
607.583	5.37
607.919	5.37
608.255	5.37
608.591	5.37
608.926	5.37
609.262	5.38
609.597	5.38
609.933	5.38
610.268	5.38
610.604	5.38
610.939	5.38
611.275	5.38
611.61	5.38
611.945	5.38
612.281	5.38
612.616	5.38
612.951	5.37
613.286	5.37
613.621	5.38
613.956	5.38
614.291	5.38
614.626	5.37
614.961	5.37
615.296	5.38
615.631	5.37
615.966	5.38
616.3	5.38
616.635	5.38
616.97	5.38
617.304	5.39
617.639	5.39
617.973	5.39
618.308	5.39
618.642	5.39
618.977	5.39
619.311	5.38
619.646	5.38
619.98	5.38
620.314	5.39
620.648	5.39
620.983	5.4
621.317	5.4
621.651	5.4
621.985	5.41
622.319	5.41
622.653	5.42
622.987	5.42
623.321	5.42
623.655	5.43
623.988	5.43
624.322	5.43
624.656	5.44
624.99	5.44
625.323	5.44
625.657	5.44
625.99	5.44
626.324	5.45
626.657	5.45
626.991	5.46
627.324	5.45
627.658	5.45
627.991	5.45
628.324	5.46
628.657	5.46
628.991	5.46
629.324	5.47
629.657	5.47
629.99	5.47
630.323	5.48
630.656	5.48
630.989	5.48
631.322	5.48
631.655	5.48
631.987	5.48
632.32	5.48
632.653	5.49
632.986	5.49
633.318	5.5
633.651	5.51
633.984	5.5
634.316	5.51
634.649	5.5
634.981	5.51
635.313	5.51
635.646	5.51
635.978	5.51
636.31	5.51
636.643	5.51
636.975	5.51
637.307	5.51
637.639	5.52
637.971	5.52
638.303	5.52
638.635	5.52
638.967	5.52
639.299	5.52
639.631	5.53
639.963	5.53
640.295	5.54
640.626	5.54
640.958	5.55
641.29	5.56
641.621	5.55
641.953	5.56
642.285	5.56
642.616	5.57
642.948	5.56
643.279	5.57
643.61	5.57
643.942	5.58
644.273	5.57
644.604	5.57
644.936	5.57
645.267	5.57
645.598	5.57
645.929	5.58
646.26	5.57
646.591	5.58
646.922	5.58
647.253	5.58
647.584	5.59
647.915	5.59
648.245	5.59
648.576	5.6
648.907	5.6
649.238	5.6
649.568	5.6
649.899	5.6
650.229	5.6
650.56	5.6
650.89	5.61
651.221	5.61
651.551	5.61
651.882	5.61
652.212	5.62
652.542	5.63
652.872	5.63
653.203	5.64
653.533	5.64
653.863	5.64
654.193	5.65
654.523	5.65
654.853	5.65
655.183	5.66
655.513	5.66
655.843	5.67
656.172	5.66
656.502	5.67
656.832	5.67
657.162	5.68
657.491	5.68
657.821	5.69
658.15	5.7
658.48	5.7
658.809	5.71
659.139	5.71
659.468	5.72
659.798	5.72
660.127	5.72
660.456	5.73
660.785	5.73
661.115	5.73
661.444	5.75
661.773	5.75
662.102	5.75
662.431	5.75
662.76	5.76
663.089	5.76
663.418	5.77
663.747	5.79
664.076	5.8
664.404	5.8
664.733	5.81
665.062	5.82
665.39	5.83
665.719	5.83
666.048	5.83
666.376	5.84
666.705	5.84
667.033	5.85
667.362	5.85
667.69	5.85
668.018	5.86
668.347	5.87
668.675	5.88
669.003	5.89
669.331	5.89
669.659	5.9
669.987	5.9
670.315	5.9
670.643	5.91
670.971	5.91
671.299	5.92
671.627	5.91
671.955	5.92
672.283	5.93
672.61	5.93
672.938	5.92
673.266	5.93
673.593	5.93
673.921	5.93
674.249	5.94
674.576	5.94
674.904	5.93
675.231	5.94
675.558	5.95
675.886	5.96
676.213	5.95
676.54	5.95
676.867	5.94
677.195	5.94
677.522	5.94
677.849	5.94
678.176	5.94
678.503	5.93
678.83	5.93
679.157	5.93
679.484	5.93
679.81	5.93
680.137	5.93
680.464	5.94
680.791	5.95
681.117	5.95
681.444	5.96
681.771	5.95
