Data from UWBM42201_Reflection_00008.txt Node
Date: Sun May 02 12:48:59 EDT 2021
User: vgr7
Spectrometer: USB2G7710
Scans to average: 10
Trigger mode: 4
Integration Time (sec): 1.000000E-1
Electric dark correction enabled: true
Boxcar width: 20
XAxis mode: Wavelengths
Number of Pixels in Spectrum: 2048
>>>>>Begin Spectral Data<<<<<
177.721	99.28
178.105	98.94
178.488	98.57
178.871	98.88
179.254	98.34
179.636	95.51
180.019	93.8
180.402	92.5
180.785	90.19
181.168	88.79
181.55	86.44
181.933	113.75
182.316	114.44
182.698	116.06
183.081	117.43
183.463	118.44
183.846	121.03
184.228	121.82
184.611	123.2
184.993	124.81
185.376	127.56
185.758	-99.04
186.14	-47.7
186.522	-10.81
186.904	6.89
187.287	15.91
187.669	18.68
188.051	17.19
188.433	24.36
188.815	20.69
189.197	19.85
189.579	19.68
189.961	18.26
190.342	14.23
190.724	15.49
191.106	14.57
191.488	14.97
191.869	10.01
192.251	10.25
192.633	8.47
193.014	6.61
193.396	5.18
193.777	13.03
194.159	13.41
194.54	10.09
194.922	11.2
195.303	13.67
195.684	14.03
196.065	14.1
196.447	13.86
196.828	12.73
197.209	13.05
197.59	3.33
197.971	2.4
198.352	3.08
198.733	6.41
199.114	6.37
199.495	6.36
199.876	6.57
200.257	5.95
200.638	4.25
201.018	-0.98
201.399	-1.43
201.78	-2.62
202.16	-3.94
202.541	-3.99
202.922	-2.85
203.302	-5.51
203.683	-3.6
204.063	-6.39
204.444	-4.7
204.824	-2.31
205.204	-0.16
205.585	9.01
205.965	8.27
206.345	8.57
206.725	2.31
207.106	3.51
207.486	3.26
207.866	3.85
208.246	3.4
208.626	6.4
209.006	12.02
209.386	6.92
209.766	6.97
210.145	5.83
210.525	4.05
210.905	5.7
211.285	7.01
211.664	5.31
212.044	7.01
212.424	7.45
212.803	2.22
213.183	5.22
213.562	5.4
213.942	4.68
214.321	1.7
214.701	-0.22
215.08	1.13
215.459	0.84
215.838	-0.62
216.218	-0.34
216.597	-1.25
216.976	-3.81
217.355	-2.11
217.734	-2.63
218.113	-1.57
218.492	-0.58
218.871	0.01
219.25	0.26
219.629	0.67
220.008	1.67
220.387	1.93
220.766	2.49
221.144	2.18
221.523	4.08
221.902	4.83
222.28	5.83
222.659	7.04
223.037	7.07
223.416	8.06
223.794	9.09
224.173	8.39
224.551	8.01
224.929	8.25
225.308	9.04
225.686	9.03
226.064	9.32
226.442	9.18
226.821	8.69
227.199	8.63
227.577	7.66
227.955	7.13
228.333	7.38
228.711	7.44
229.089	7.67
229.467	7.19
229.845	7.53
230.222	7.55
230.6	7.82
230.978	8.04
231.356	7.83
231.733	7.51
232.111	7.24
232.488	6.78
232.866	6.48
233.243	6.22
233.621	6.11
233.998	5.7
234.376	5.75
234.753	5.81
235.13	5.75
235.508	6
235.885	5.98
236.262	5.97
236.639	6.02
237.016	5.86
237.393	5.79
237.77	5.6
238.147	5.4
238.524	5.37
238.901	5.26
239.278	5.25
239.655	5.19
240.032	5.03
240.409	5.05
240.785	4.94
241.162	5.02
241.539	4.95
241.915	4.93
242.292	4.88
242.668	4.81
243.045	4.82
243.421	4.71
243.798	4.67
244.174	4.61
244.551	4.57
244.927	4.42
245.303	4.39
245.679	4.38
246.056	4.34
246.432	4.28
246.808	4.05
247.184	4.09
247.56	4.08
247.936	4.13
248.312	4.11
248.688	4.16
249.064	4.13
249.44	4.13
249.815	4.15
250.191	4.1
250.567	4.07
250.943	4.12
251.318	4.11
251.694	4.06
252.069	4
252.445	4.01
252.82	4.08
253.196	4.08
253.571	4.05
253.947	4.12
254.322	4.09
254.697	4.2
255.073	4.18
255.448	4.18
255.823	4.13
256.198	4.08
256.573	3.9
256.948	3.9
257.323	3.89
257.698	3.85
258.073	3.84
258.448	3.7
258.823	3.68
259.198	3.66
259.573	3.69
259.948	3.73
260.322	3.69
260.697	3.67
261.072	3.67
261.446	3.66
261.821	3.63
262.195	3.6
262.57	3.57
262.944	3.56
263.319	3.53
263.693	3.57
264.067	3.59
264.442	3.68
264.816	3.65
265.19	3.61
265.564	3.66
265.938	3.64
266.313	3.68
266.687	3.64
267.061	3.64
267.435	3.62
267.809	3.61
268.183	3.59
268.556	3.61
268.93	3.6
269.304	3.57
269.678	3.54
270.051	3.51
270.425	3.51
270.799	3.52
271.172	3.53
271.546	3.54
271.919	3.54
272.293	3.52
272.666	3.52
273.04	3.54
273.413	3.48
273.787	3.48
274.16	3.5
274.533	3.53
274.906	3.51
275.279	3.51
275.653	3.5
276.026	3.5
276.399	3.47
276.772	3.46
277.145	3.5
277.518	3.53
277.891	3.54
278.263	3.54
278.636	3.55
279.009	3.56
279.382	3.53
279.755	3.49
280.127	3.52
280.5	3.53
280.872	3.51
281.245	3.63
281.617	3.64
281.99	3.67
282.362	3.71
282.735	3.69
283.107	3.69
283.479	3.7
283.852	3.72
284.224	3.74
284.596	3.74
284.968	3.64
285.34	3.64
285.713	3.62
286.085	3.56
286.457	3.56
286.829	3.55
287.201	3.57
287.572	3.62
287.944	3.63
288.316	3.66
288.688	3.71
289.06	3.71
289.431	3.72
289.803	3.72
290.175	3.74
290.546	3.77
290.918	3.79
291.289	3.77
291.661	3.79
292.032	3.76
292.403	3.8
292.775	3.89
293.146	3.89
293.517	3.93
293.889	4.01
294.26	4.02
294.631	4.05
295.002	4.1
295.373	4.14
295.744	4.15
296.115	4.15
296.486	4.1
296.857	4.12
297.228	4.13
297.599	4.13
297.97	4.14
298.34	4.18
298.711	4.16
299.082	4.16
299.452	4.22
299.823	4.26
300.194	4.29
300.564	4.31
300.935	4.34
301.305	4.35
301.676	4.36
302.046	4.39
302.416	4.42
302.787	4.44
303.157	4.4
303.527	4.43
303.897	4.46
304.267	4.51
304.637	4.55
305.008	4.61
305.378	4.66
305.748	4.67
306.117	4.77
306.487	4.85
306.857	4.94
307.227	4.98
307.597	5
307.967	5.02
308.336	5.06
308.706	5.11
309.076	5.14
309.445	5.16
309.815	5.09
310.184	5.12
310.554	5.1
310.923	5.17
311.293	5.23
311.662	5.26
312.031	5.29
312.401	5.32
312.77	5.33
313.139	5.37
313.508	5.43
313.877	5.4
314.246	5.42
314.616	5.42
314.985	5.42
315.353	5.45
315.722	5.49
316.091	5.52
316.46	5.54
316.829	5.59
317.198	5.63
317.567	5.8
317.935	5.84
318.304	5.93
318.672	5.99
319.041	6.02
319.41	6.06
319.778	6.13
320.147	6.16
320.515	6.19
320.883	6.23
321.252	6.2
321.62	6.28
321.988	6.3
322.357	6.34
322.725	6.42
323.093	6.47
323.461	6.5
323.829	6.53
324.197	6.56
324.565	6.57
324.933	6.6
325.301	6.59
325.669	6.62
326.037	6.63
326.405	6.6
326.772	6.61
327.14	6.62
327.508	6.62
327.875	6.64
328.243	6.66
328.61	6.64
328.978	6.67
329.346	6.69
329.713	6.7
330.08	6.71
330.448	6.73
330.815	6.71
331.182	6.74
331.55	6.76
331.917	6.79
332.284	6.8
332.651	6.83
333.018	6.84
333.385	6.86
333.752	6.88
334.119	6.92
334.486	6.94
334.853	6.93
335.22	6.95
335.587	6.96
335.954	6.97
336.32	7
336.687	7.01
337.054	7.03
337.42	7.06
337.787	7.06
338.153	7.09
338.52	7.15
338.886	7.19
339.253	7.18
339.619	7.19
339.986	7.19
340.352	7.2
340.718	7.23
341.084	7.25
341.451	7.26
341.817	7.26
342.183	7.27
342.549	7.3
342.915	7.3
343.281	7.34
343.647	7.35
344.013	7.39
344.379	7.4
344.745	7.42
345.11	7.42
345.476	7.44
345.842	7.46
346.208	7.44
346.573	7.46
346.939	7.48
347.304	7.5
347.67	7.5
348.035	7.5
348.401	7.5
348.766	7.53
349.132	7.54
349.497	7.57
349.862	7.58
350.228	7.6
350.593	7.61
350.958	7.6
351.323	7.59
351.688	7.6
352.053	7.59
352.418	7.59
352.783	7.59
353.148	7.59
353.513	7.57
353.878	7.57
354.243	7.57
354.608	7.57
354.972	7.56
355.337	7.56
355.702	7.54
356.066	7.54
356.431	7.52
356.795	7.51
357.16	7.47
357.524	7.47
357.889	7.46
358.253	7.45
358.618	7.45
358.982	7.45
359.346	7.44
359.71	7.43
360.075	7.43
360.439	7.42
360.803	7.4
361.167	7.38
361.531	7.39
361.895	7.38
362.259	7.36
362.623	7.35
362.987	7.33
363.351	7.32
363.714	7.31
364.078	7.29
364.442	7.27
364.806	7.25
365.169	7.22
365.533	7.19
365.896	7.17
366.26	7.15
366.623	7.12
366.987	7.09
367.35	7.07
367.714	7.05
368.077	7.02
368.44	6.99
368.803	6.96
369.167	6.94
369.53	6.92
369.893	6.9
370.256	6.87
370.619	6.84
370.982	6.81
371.345	6.76
371.708	6.74
372.071	6.72
372.434	6.68
372.797	6.67
373.159	6.66
373.522	6.62
373.885	6.58
374.247	6.53
374.61	6.5
374.973	6.45
375.335	6.4
375.698	6.38
376.06	6.34
376.423	6.3
376.785	6.27
377.147	6.23
377.51	6.2
377.872	6.17
378.234	6.14
378.596	6.12
378.958	6.09
379.321	6.07
379.683	6.04
380.045	6
380.407	5.97
380.769	5.94
381.13	5.92
381.492	5.9
381.854	5.88
382.216	5.85
382.578	5.82
382.939	5.8
383.301	5.77
383.663	5.74
384.024	5.71
384.386	5.68
384.747	5.65
385.109	5.61
385.47	5.58
385.832	5.56
386.193	5.53
386.554	5.5
386.916	5.47
387.277	5.45
387.638	5.43
387.999	5.4
388.36	5.39
388.721	5.37
389.082	5.34
389.443	5.32
389.804	5.3
390.165	5.29
390.526	5.26
390.887	5.24
391.248	5.21
391.609	5.2
391.969	5.17
392.33	5.16
392.691	5.13
393.051	5.11
393.412	5.08
393.772	5.06
394.133	5.04
394.493	5.01
394.854	4.99
395.214	4.96
395.574	4.93
395.935	4.9
396.295	4.87
396.655	4.85
397.015	4.83
397.376	4.8
397.736	4.78
398.096	4.75
398.456	4.73
398.816	4.72
399.176	4.68
399.535	4.67
399.895	4.65
400.255	4.63
400.615	4.61
400.975	4.59
401.334	4.57
401.694	4.55
402.054	4.53
402.413	4.49
402.773	4.48
403.132	4.46
403.492	4.44
403.851	4.42
404.211	4.42
404.57	4.4
404.929	4.4
405.288	4.38
405.648	4.37
406.007	4.35
406.366	4.35
406.725	4.35
407.084	4.33
407.443	4.32
407.802	4.3
408.161	4.28
408.52	4.27
408.879	4.26
409.238	4.25
409.596	4.24
409.955	4.24
410.314	4.24
410.673	4.22
411.031	4.22
411.39	4.22
411.748	4.22
412.107	4.21
412.465	4.21
412.824	4.23
413.182	4.23
413.54	4.24
413.899	4.25
414.257	4.27
414.615	4.3
414.974	4.32
415.332	4.35
415.69	4.38
416.048	4.39
416.406	4.42
416.764	4.44
417.122	4.46
417.48	4.48
417.838	4.5
418.195	4.52
418.553	4.53
418.911	4.53
419.269	4.53
419.626	4.52
419.984	4.51
420.342	4.48
420.699	4.46
421.057	4.43
421.414	4.41
421.772	4.39
422.129	4.38
422.486	4.37
422.844	4.36
423.201	4.36
423.558	4.35
423.915	4.34
424.273	4.33
424.63	4.32
424.987	4.31
425.344	4.3
425.701	4.3
426.058	4.29
426.415	4.28
426.772	4.27
427.128	4.26
427.485	4.24
427.842	4.22
428.199	4.2
428.555	4.18
428.912	4.16
429.269	4.12
429.625	4.1
429.982	4.07
430.338	4.04
430.695	4.02
431.051	3.99
431.407	3.96
431.764	3.94
432.12	3.92
432.476	3.91
432.832	3.9
433.189	3.9
433.545	3.89
433.901	3.91
434.257	3.92
434.613	3.94
434.969	3.97
435.325	3.99
435.681	4.03
436.036	4.04
436.392	4.06
436.748	4.06
437.104	4.06
437.459	4.08
437.815	4.09
438.171	4.11
438.526	4.13
438.882	4.16
439.237	4.19
439.593	4.22
439.948	4.25
440.304	4.28
440.659	4.3
441.014	4.32
441.369	4.35
441.725	4.36
442.08	4.37
442.435	4.38
442.79	4.38
443.145	4.38
443.5	4.38
443.855	4.38
444.21	4.37
444.565	4.37
444.92	4.36
445.275	4.35
445.629	4.33
445.984	4.33
446.339	4.32
446.693	4.31
447.048	4.29
447.403	4.28
447.757	4.25
448.112	4.23
448.466	4.21
448.82	4.2
449.175	4.18
449.529	4.16
449.883	4.14
450.238	4.12
450.592	4.11
450.946	4.1
451.3	4.1
451.654	4.11
452.008	4.1
452.362	4.1
452.716	4.1
453.07	4.09
453.424	4.08
453.778	4.07
454.132	4.05
454.486	4.04
454.839	4.02
455.193	4
455.547	3.99
455.9	3.95
456.254	3.93
456.607	3.9
456.961	3.88
457.314	3.87
457.668	3.86
458.021	3.85
458.375	3.85
458.728	3.85
459.081	3.85
459.434	3.86
459.787	3.87
460.141	3.88
460.494	3.88
460.847	3.89
461.2	3.89
461.553	3.9
461.906	3.91
462.259	3.91
462.611	3.92
462.964	3.93
463.317	3.93
463.67	3.94
464.022	3.94
464.375	3.94
464.728	3.95
465.08	3.95
465.433	3.96
465.785	3.96
466.138	3.95
466.49	3.94
466.843	3.93
467.195	3.92
467.547	3.91
467.899	3.9
468.252	3.88
468.604	3.86
468.956	3.85
469.308	3.84
469.66	3.85
470.012	3.85
470.364	3.86
470.716	3.87
471.068	3.89
471.42	3.92
471.772	3.94
472.123	3.96
472.475	3.98
472.827	3.99
473.178	4.01
473.53	4.02
473.882	4.04
474.233	4.06
474.585	4.1
474.936	4.16
475.288	4.25
475.639	4.36
475.99	4.49
476.342	4.64
476.693	4.8
477.044	4.95
477.395	5.11
477.746	5.28
478.097	5.44
478.448	5.61
478.8	5.77
479.15	5.92
479.501	6.05
479.852	6.18
480.203	6.29
480.554	6.4
480.905	6.51
481.255	6.61
481.606	6.71
481.957	6.79
482.307	6.87
482.658	6.95
483.009	7.03
483.359	7.11
483.709	7.18
484.06	7.25
484.41	7.32
484.761	7.38
485.111	7.44
485.461	7.5
485.811	7.55
486.162	7.6
486.512	7.64
486.862	7.68
487.212	7.7
487.562	7.72
487.912	7.73
488.262	7.73
488.612	7.73
488.961	7.71
489.311	7.67
489.661	7.61
490.011	7.52
490.36	7.43
490.71	7.3
491.06	7.18
491.409	7.04
491.759	6.91
492.108	6.77
492.458	6.62
492.807	6.48
493.157	6.33
493.506	6.18
493.855	6.05
494.204	5.92
494.554	5.81
494.903	5.71
495.252	5.6
495.601	5.5
495.95	5.41
496.299	5.33
496.648	5.26
496.997	5.18
497.346	5.12
497.695	5.05
498.043	5
498.392	4.94
498.741	4.89
499.09	4.84
499.438	4.8
499.787	4.76
500.135	4.73
500.484	4.71
500.832	4.7
501.181	4.7
501.529	4.71
501.878	4.73
502.226	4.76
502.574	4.8
502.923	4.84
503.271	4.89
503.619	4.95
503.967	5
504.315	5.06
504.663	5.11
505.011	5.17
505.359	5.23
505.707	5.29
506.055	5.35
506.403	5.43
506.751	5.5
507.098	5.57
507.446	5.66
507.794	5.75
508.141	5.85
508.489	5.95
508.837	6.06
509.184	6.16
509.531	6.28
509.879	6.4
510.226	6.53
510.574	6.67
510.921	6.81
511.268	6.96
511.616	7.11
511.963	7.28
512.31	7.45
512.657	7.61
513.004	7.78
513.351	7.95
513.698	8.11
514.045	8.26
514.392	8.41
514.739	8.56
515.086	8.7
515.432	8.85
515.779	9.01
516.126	9.17
516.473	9.35
516.819	9.54
517.166	9.75
517.512	9.97
517.859	10.2
518.205	10.46
518.552	10.74
518.898	11.04
519.245	11.38
519.591	11.79
519.937	12.26
520.283	12.8
520.629	13.39
520.976	14.01
521.322	14.64
521.668	15.29
522.014	15.94
522.36	16.59
522.706	17.22
523.052	17.85
523.398	18.46
523.743	19.02
524.089	19.53
524.435	20.02
524.781	20.51
525.126	20.99
525.472	21.46
525.817	21.93
526.163	22.39
526.509	22.83
526.854	23.28
527.199	23.72
527.545	24.16
527.89	24.61
528.235	25.05
528.581	25.48
528.926	25.88
529.271	26.26
529.616	26.62
529.961	26.93
530.306	27.22
530.651	27.51
530.996	27.78
531.341	28.03
531.686	28.26
532.031	28.47
532.376	28.72
532.721	28.98
533.065	29.26
533.41	29.55
533.755	29.81
534.099	30.02
534.444	30.21
534.788	30.38
535.133	30.53
535.477	30.65
535.822	30.74
536.166	30.79
536.51	30.8
536.855	30.76
537.199	30.7
537.543	30.62
537.887	30.57
538.231	30.56
538.576	30.54
538.92	30.51
539.264	30.47
539.608	30.42
539.951	30.34
540.295	30.25
540.639	30.15
540.983	30.03
541.327	29.92
541.671	29.8
542.014	29.7
542.358	29.61
542.701	29.61
543.045	29.63
543.389	29.68
543.732	29.74
544.075	29.83
544.419	29.93
544.762	30.03
545.105	30.15
545.449	30.29
545.792	30.43
546.135	30.56
546.478	30.66
546.821	30.71
547.165	30.71
547.508	30.65
547.851	30.55
548.194	30.42
548.536	30.24
548.879	30.04
549.222	29.82
549.565	29.59
549.908	29.36
550.25	29.16
550.593	29.01
550.936	28.92
551.278	28.87
551.621	28.87
551.963	28.88
552.306	28.9
552.648	28.96
552.991	29.04
553.333	29.14
553.675	29.26
554.017	29.42
554.36	29.59
554.702	29.8
555.044	30.04
555.386	30.31
555.728	30.57
556.07	30.8
556.412	31.02
556.754	31.17
557.096	31.31
557.438	31.47
557.78	31.61
558.121	31.76
558.463	31.89
558.805	32.03
559.147	32.18
559.488	32.32
559.83	32.47
560.171	32.62
560.513	32.76
560.854	32.89
561.196	33.02
561.537	33.16
561.878	33.28
562.22	33.41
562.561	33.54
562.902	33.67
563.243	33.8
563.584	33.93
563.925	34.06
564.266	34.19
564.607	34.31
564.948	34.43
565.289	34.56
565.63	34.68
565.971	34.79
566.312	34.91
566.653	35.03
566.993	35.13
567.334	35.24
567.675	35.35
568.015	35.46
568.356	35.56
568.696	35.66
569.037	35.75
569.377	35.84
569.718	35.93
570.058	36.01
570.398	36.1
570.739	36.17
571.079	36.25
571.419	36.32
571.759	36.38
572.099	36.45
572.439	36.52
572.779	36.6
573.119	36.67
573.459	36.72
573.799	36.78
574.139	36.85
574.479	36.91
574.819	36.98
575.158	37.04
575.498	37.1
575.838	37.16
576.177	37.21
576.517	37.28
576.856	37.33
577.196	37.38
577.535	37.43
577.875	37.48
578.214	37.52
578.553	37.58
578.893	37.62
579.232	37.67
579.571	37.71
579.91	37.76
580.25	37.8
580.589	37.85
580.928	37.9
581.267	37.95
581.606	37.99
581.945	38.04
582.283	38.09
582.622	38.13
582.961	38.2
583.3	38.26
583.639	38.32
583.977	38.38
584.316	38.43
584.654	38.51
584.993	38.56
585.332	38.62
585.67	38.7
586.008	38.75
586.347	38.81
586.685	38.87
587.024	38.92
587.362	38.98
587.7	39.05
588.038	39.12
588.376	39.18
588.715	39.24
589.053	39.31
589.391	39.38
589.729	39.44
590.067	39.51
590.404	39.57
590.742	39.63
591.08	39.69
591.418	39.75
591.756	39.82
592.093	39.87
592.431	39.93
592.769	39.98
593.106	40.03
593.444	40.07
593.781	40.11
594.119	40.16
594.456	40.21
594.793	40.25
595.131	40.3
595.468	40.35
595.805	40.39
596.143	40.45
596.48	40.51
596.817	40.56
597.154	40.61
597.491	40.67
597.828	40.71
598.165	40.78
598.502	40.81
598.839	40.87
599.176	40.91
599.512	40.95
599.849	40.98
600.186	41.02
600.523	41.05
600.859	41.09
601.196	41.12
601.532	41.17
601.869	41.19
602.205	41.22
602.542	41.26
602.878	41.3
603.215	41.32
603.551	41.35
603.887	41.38
604.223	41.4
604.56	41.44
604.896	41.46
605.232	41.48
605.568	41.51
605.904	41.54
606.24	41.56
606.576	41.59
606.912	41.61
607.248	41.64
607.583	41.66
607.919	41.68
608.255	41.71
608.591	41.74
608.926	41.75
609.262	41.78
609.597	41.8
609.933	41.82
610.268	41.85
610.604	41.87
610.939	41.88
611.275	41.89
611.61	41.91
611.945	41.92
612.281	41.93
612.616	41.94
612.951	41.96
613.286	41.97
613.621	41.97
613.956	41.99
614.291	42.01
614.626	42.04
614.961	42.07
615.296	42.08
615.631	42.1
615.966	42.12
616.3	42.13
616.635	42.14
616.97	42.15
617.304	42.16
617.639	42.18
617.973	42.2
618.308	42.21
618.642	42.23
618.977	42.25
619.311	42.27
619.646	42.3
619.98	42.33
620.314	42.36
620.648	42.41
620.983	42.44
621.317	42.48
621.651	42.51
621.985	42.53
622.319	42.54
622.653	42.57
622.987	42.59
623.321	42.62
623.655	42.64
623.988	42.66
624.322	42.68
624.656	42.7
624.99	42.72
625.323	42.74
625.657	42.76
625.99	42.8
626.324	42.83
626.657	42.84
626.991	42.86
627.324	42.89
627.658	42.92
627.991	42.94
628.324	42.95
628.657	42.97
628.991	42.99
629.324	43
629.657	43.03
629.99	43.05
630.323	43.08
630.656	43.12
630.989	43.14
631.322	43.17
631.655	43.18
631.987	43.2
632.32	43.23
632.653	43.23
632.986	43.26
633.318	43.27
633.651	43.29
633.984	43.3
634.316	43.32
634.649	43.33
634.981	43.35
635.313	43.34
635.646	43.36
635.978	43.37
636.31	43.39
636.643	43.41
636.975	43.42
637.307	43.43
637.639	43.45
637.971	43.48
638.303	43.49
638.635	43.51
638.967	43.54
639.299	43.55
639.631	43.56
639.963	43.59
640.295	43.62
640.626	43.65
640.958	43.67
641.29	43.69
641.621	43.71
641.953	43.74
642.285	43.76
642.616	43.79
642.948	43.81
643.279	43.84
643.61	43.86
643.942	43.88
644.273	43.87
644.604	43.88
644.936	43.9
645.267	43.92
645.598	43.94
645.929	43.95
646.26	43.99
646.591	43.99
646.922	44.01
647.253	44.03
647.584	44.04
647.915	44.06
648.245	44.08
648.576	44.09
648.907	44.12
649.238	44.15
649.568	44.17
649.899	44.19
650.229	44.21
650.56	44.23
650.89	44.26
651.221	44.28
651.551	44.31
651.882	44.35
652.212	44.36
652.542	44.37
652.872	44.4
653.203	44.44
653.533	44.44
653.863	44.44
654.193	44.45
654.523	44.46
654.853	44.47
655.183	44.47
655.513	44.5
655.843	44.53
656.172	44.53
656.502	44.55
656.832	44.55
657.162	44.56
657.491	44.57
657.821	44.61
658.15	44.6
658.48	44.62
658.809	44.64
659.139	44.66
659.468	44.69
659.798	44.72
660.127	44.75
660.456	44.78
660.785	44.8
661.115	44.82
661.444	44.84
661.773	44.86
662.102	44.89
662.431	44.89
662.76	44.91
663.089	44.92
663.418	44.93
663.747	44.93
664.076	44.95
664.404	44.95
664.733	44.96
665.062	45
665.39	45.01
665.719	45.03
666.048	45.03
666.376	45.04
666.705	45.05
667.033	45.05
667.362	45.07
667.69	45.1
668.018	45.12
668.347	45.13
668.675	45.14
669.003	45.15
669.331	45.16
669.659	45.19
669.987	45.2
670.315	45.21
670.643	45.26
670.971	45.28
671.299	45.28
