Data from UWBM59333_Reflection_00013.txt Node
Date: Sun May 02 13:49:10 EDT 2021
User: vgr7
Spectrometer: USB2G7710
Scans to average: 10
Trigger mode: 4
Integration Time (sec): 1.000000E-1
Electric dark correction enabled: true
Boxcar width: 20
XAxis mode: Wavelengths
Number of Pixels in Spectrum: 2048
>>>>>Begin Spectral Data<<<<<
177.721	26.45
178.105	56.86
178.488	57.46
178.871	83.33
179.254	60.59
179.636	59.92
180.019	46.64
180.402	43.47
180.785	46.54
181.168	46.38
181.55	49.72
181.933	51.36
182.316	42.85
182.698	36.99
183.081	36.91
183.463	41.24
183.846	39.74
184.228	39.65
184.611	42.48
184.993	42.83
185.376	41.28
185.758	41.87
186.14	44.04
186.522	38.47
186.904	37.55
187.287	39.38
187.669	38.69
188.051	36.34
188.433	35.99
188.815	32.92
189.197	34.83
189.579	34.05
189.961	34.62
190.342	35.58
190.724	37.74
191.106	37.24
191.488	37.38
191.869	35.31
192.251	32.39
192.633	31.55
193.014	29.99
193.396	28.98
193.777	28.64
194.159	28.46
194.54	27.05
194.922	26.63
195.303	26.61
195.684	26.52
196.065	26.44
196.447	27.75
196.828	26.92
197.209	25.19
197.59	23.97
197.971	25.67
198.352	26.15
198.733	26.38
199.114	23.62
199.495	23.94
199.876	23.49
200.257	22.42
200.638	22.61
201.018	24.12
201.399	24.31
201.78	23.41
202.16	24.07
202.541	23.16
202.922	23.36
203.302	23.2
203.683	23.86
204.063	24.62
204.444	25.25
204.824	23.86
205.204	22.6
205.585	24.29
205.965	24.72
206.345	23.45
206.725	22.53
207.106	22.35
207.486	21.42
207.866	22.04
208.246	21.29
208.626	20.77
209.006	22.53
209.386	22.28
209.766	22.06
210.145	19.96
210.525	20.48
210.905	20.94
211.285	20.32
211.664	20.41
212.044	17.37
212.424	16.26
212.803	16.2
213.183	16.04
213.562	16.7
213.942	16.65
214.321	16.29
214.701	17.01
215.08	17.61
215.459	18.03
215.838	17.76
216.218	16.28
216.597	15.14
216.976	15.33
217.355	16.37
217.734	16.7
218.113	18.37
218.492	17.13
218.871	17.4
219.25	18.03
219.629	16.76
220.008	16.16
220.387	14.92
220.766	15.23
221.144	13.69
221.523	13.13
221.902	12.81
222.28	12.53
222.659	12.87
223.037	12.69
223.416	12.95
223.794	12.79
224.173	13.72
224.551	13.37
224.929	13.71
225.308	13.35
225.686	13.94
226.064	13.24
226.442	12.37
226.821	12.73
227.199	12.22
227.577	12.4
227.955	12.79
228.333	12.37
228.711	11.79
229.089	10.88
229.467	10.83
229.845	10.39
230.222	10.22
230.6	9.63
230.978	9.27
231.356	9.21
231.733	8.95
232.111	8.8
232.488	8.39
232.866	7.89
233.243	7.54
233.621	7.29
233.998	7.2
234.376	6.89
234.753	6.49
235.13	6.4
235.508	6.49
235.885	6.54
236.262	6.32
236.639	6.22
237.016	6.14
237.393	6.06
237.77	6.01
238.147	5.82
238.524	5.73
238.901	5.71
239.278	5.63
239.655	5.59
240.032	5.42
240.409	5.34
240.785	5.37
241.162	5.34
241.539	5.35
241.915	5.38
242.292	5.36
242.668	5.35
243.045	5.35
243.421	5.29
243.798	5.27
244.174	5.3
244.551	5.34
244.927	5.32
245.303	5.34
245.679	5.3
246.056	5.29
246.432	5.29
246.808	5.25
247.184	5.26
247.56	5.25
247.936	5.24
248.312	5.26
248.688	5.27
249.064	5.26
249.44	5.27
249.815	5.26
250.191	5.24
250.567	5.24
250.943	5.18
251.318	5.12
251.694	5.13
252.069	5.11
252.445	5.09
252.82	5.09
253.196	5.06
253.571	5.04
253.947	5.06
254.322	5.02
254.697	5.02
255.073	5.01
255.448	5.04
255.823	5
256.198	4.97
256.573	4.95
256.948	4.96
257.323	4.93
257.698	4.89
258.073	4.86
258.448	4.83
258.823	4.84
259.198	4.83
259.573	4.81
259.948	4.79
260.322	4.79
260.697	4.76
261.072	4.74
261.446	4.73
261.821	4.73
262.195	4.71
262.57	4.68
262.944	4.67
263.319	4.68
263.693	4.65
264.067	4.65
264.442	4.62
264.816	4.6
265.19	4.6
265.564	4.61
265.938	4.59
266.313	4.61
266.687	4.62
267.061	4.61
267.435	4.61
267.809	4.6
268.183	4.59
268.556	4.58
268.93	4.6
269.304	4.58
269.678	4.57
270.051	4.56
270.425	4.52
270.799	4.5
271.172	4.52
271.546	4.51
271.919	4.5
272.293	4.48
272.666	4.47
273.04	4.5
273.413	4.53
273.787	4.56
274.16	4.53
274.533	4.53
274.906	4.55
275.279	4.54
275.653	4.54
276.026	4.56
276.399	4.57
276.772	4.59
277.145	4.58
277.518	4.59
277.891	4.62
278.263	4.62
278.636	4.62
279.009	4.62
279.382	4.61
279.755	4.61
280.127	4.64
280.5	4.65
280.872	4.66
281.245	4.67
281.617	4.68
281.99	4.68
282.362	4.69
282.735	4.69
283.107	4.71
283.479	4.71
283.852	4.74
284.224	4.74
284.596	4.75
284.968	4.75
285.34	4.77
285.713	4.79
286.085	4.82
286.457	4.84
286.829	4.84
287.201	4.88
287.572	4.9
287.944	4.93
288.316	4.93
288.688	4.94
289.06	4.96
289.431	4.99
289.803	5.02
290.175	5.04
290.546	5.08
290.918	5.13
291.289	5.17
291.661	5.21
292.032	5.23
292.403	5.27
292.775	5.31
293.146	5.34
293.517	5.38
293.889	5.44
294.26	5.49
294.631	5.55
295.002	5.62
295.373	5.65
295.744	5.7
296.115	5.75
296.486	5.81
296.857	5.85
297.228	5.9
297.599	5.97
297.97	6.02
298.34	6.07
298.711	6.13
299.082	6.18
299.452	6.24
299.823	6.3
300.194	6.36
300.564	6.43
300.935	6.49
301.305	6.54
301.676	6.6
302.046	6.67
302.416	6.73
302.787	6.78
303.157	6.85
303.527	6.93
303.897	7.01
304.267	7.1
304.637	7.2
305.008	7.29
305.378	7.38
305.748	7.46
306.117	7.54
306.487	7.63
306.857	7.72
307.227	7.81
307.597	7.89
307.967	7.97
308.336	8.06
308.706	8.13
309.076	8.19
309.445	8.26
309.815	8.32
310.184	8.37
310.554	8.45
310.923	8.53
311.293	8.61
311.662	8.68
312.031	8.76
312.401	8.84
312.77	8.92
313.139	8.99
313.508	9.07
313.877	9.16
314.246	9.25
314.616	9.31
314.985	9.38
315.353	9.46
315.722	9.51
316.091	9.61
316.46	9.68
316.829	9.78
317.198	9.87
317.567	9.97
317.935	10.07
318.304	10.17
318.672	10.28
319.041	10.38
319.41	10.46
319.778	10.55
320.147	10.62
320.515	10.7
320.883	10.77
321.252	10.83
321.62	10.89
321.988	10.96
322.357	11.04
322.725	11.12
323.093	11.18
323.461	11.25
323.829	11.32
324.197	11.38
324.565	11.44
324.933	11.52
325.301	11.58
325.669	11.63
326.037	11.68
326.405	11.73
326.772	11.79
327.14	11.84
327.508	11.88
327.875	11.91
328.243	11.96
328.61	11.99
328.978	12.03
329.346	12.07
329.713	12.13
330.08	12.17
330.448	12.2
330.815	12.25
331.182	12.29
331.55	12.34
331.917	12.37
332.284	12.39
332.651	12.43
333.018	12.47
333.385	12.51
333.752	12.53
334.119	12.57
334.486	12.62
334.853	12.66
335.22	12.72
335.587	12.77
335.954	12.82
336.32	12.87
336.687	12.91
337.054	12.94
337.42	12.96
337.787	12.99
338.153	13.04
338.52	13.06
338.886	13.08
339.253	13.11
339.619	13.15
339.986	13.18
340.352	13.22
340.718	13.26
341.084	13.29
341.451	13.32
341.817	13.34
342.183	13.37
342.549	13.4
342.915	13.43
343.281	13.46
343.647	13.5
344.013	13.52
344.379	13.54
344.745	13.57
345.11	13.6
345.476	13.64
345.842	13.67
346.208	13.69
346.573	13.7
346.939	13.73
347.304	13.76
347.67	13.78
348.035	13.8
348.401	13.83
348.766	13.84
349.132	13.85
349.497	13.86
349.862	13.87
350.228	13.88
350.593	13.88
350.958	13.89
351.323	13.89
351.688	13.91
352.053	13.92
352.418	13.93
352.783	13.93
353.148	13.93
353.513	13.93
353.878	13.93
354.243	13.92
354.608	13.92
354.972	13.92
355.337	13.9
355.702	13.88
356.066	13.88
356.431	13.87
356.795	13.86
357.16	13.84
357.524	13.83
357.889	13.82
358.253	13.81
358.618	13.79
358.982	13.77
359.346	13.75
359.71	13.73
360.075	13.71
360.439	13.67
360.803	13.65
361.167	13.62
361.531	13.61
361.895	13.58
362.259	13.55
362.623	13.51
362.987	13.47
363.351	13.43
363.714	13.41
364.078	13.37
364.442	13.33
364.806	13.29
365.169	13.25
365.533	13.22
365.896	13.17
366.26	13.14
366.623	13.09
366.987	13.04
367.35	12.99
367.714	12.94
368.077	12.88
368.44	12.82
368.803	12.77
369.167	12.71
369.53	12.64
369.893	12.57
370.256	12.5
370.619	12.44
370.982	12.36
371.345	12.29
371.708	12.21
372.071	12.14
372.434	12.07
372.797	11.99
373.159	11.92
373.522	11.86
373.885	11.79
374.247	11.71
374.61	11.64
374.973	11.56
375.335	11.49
375.698	11.41
376.06	11.33
376.423	11.24
376.785	11.16
377.147	11.09
377.51	11.03
377.872	10.96
378.234	10.88
378.596	10.8
378.958	10.73
379.321	10.65
379.683	10.58
380.045	10.51
380.407	10.43
380.769	10.37
381.13	10.29
381.492	10.23
381.854	10.16
382.216	10.08
382.578	10.02
382.939	9.96
383.301	9.9
383.663	9.83
384.024	9.76
384.386	9.69
384.747	9.63
385.109	9.57
385.47	9.5
385.832	9.44
386.193	9.38
386.554	9.32
386.916	9.26
387.277	9.2
387.638	9.14
387.999	9.09
388.36	9.03
388.721	8.97
389.082	8.92
389.443	8.87
389.804	8.82
390.165	8.77
390.526	8.73
390.887	8.68
391.248	8.63
391.609	8.58
391.969	8.53
392.33	8.48
392.691	8.43
393.051	8.37
393.412	8.32
393.772	8.27
394.133	8.22
394.493	8.17
394.854	8.12
395.214	8.06
395.574	8.01
395.935	7.96
396.295	7.91
396.655	7.86
397.015	7.82
397.376	7.77
397.736	7.72
398.096	7.68
398.456	7.62
398.816	7.59
399.176	7.53
399.535	7.48
399.895	7.43
400.255	7.39
400.615	7.35
400.975	7.3
401.334	7.26
401.694	7.21
402.054	7.18
402.413	7.13
402.773	7.09
403.132	7.06
403.492	7.03
403.851	6.99
404.211	6.96
404.57	6.93
404.929	6.9
405.288	6.86
405.648	6.84
406.007	6.82
406.366	6.8
406.725	6.77
407.084	6.75
407.443	6.72
407.802	6.7
408.161	6.68
408.52	6.66
408.879	6.64
409.238	6.63
409.596	6.61
409.955	6.6
410.314	6.58
410.673	6.56
411.031	6.55
411.39	6.53
411.748	6.52
412.107	6.51
412.465	6.5
412.824	6.51
413.182	6.52
413.54	6.54
413.899	6.56
414.257	6.59
414.615	6.63
414.974	6.66
415.332	6.7
415.69	6.74
416.048	6.76
416.406	6.8
416.764	6.82
417.122	6.84
417.48	6.87
417.838	6.89
418.195	6.91
418.553	6.92
418.911	6.93
419.269	6.92
419.626	6.89
419.984	6.86
420.342	6.83
420.699	6.79
421.057	6.74
421.414	6.69
421.772	6.66
422.129	6.63
422.486	6.6
422.844	6.59
423.201	6.57
423.558	6.55
423.915	6.53
424.273	6.52
424.63	6.5
424.987	6.48
425.344	6.46
425.701	6.45
426.058	6.43
426.415	6.41
426.772	6.39
427.128	6.37
427.485	6.34
427.842	6.3
428.199	6.26
428.555	6.23
428.912	6.18
429.269	6.12
429.625	6.07
429.982	6.02
430.338	5.97
430.695	5.92
431.051	5.87
431.407	5.83
431.764	5.8
432.12	5.76
432.476	5.74
432.832	5.72
433.189	5.71
433.545	5.71
433.901	5.73
434.257	5.76
434.613	5.79
434.969	5.82
435.325	5.86
435.681	5.92
436.036	5.95
436.392	5.98
436.748	6
437.104	6.01
437.459	6.04
437.815	6.06
438.171	6.09
438.526	6.13
438.882	6.17
439.237	6.22
439.593	6.27
439.948	6.31
440.304	6.36
440.659	6.39
441.014	6.41
441.369	6.45
441.725	6.47
442.08	6.49
442.435	6.5
442.79	6.5
443.145	6.5
443.5	6.5
443.855	6.49
444.21	6.49
444.565	6.48
444.92	6.46
445.275	6.44
445.629	6.42
445.984	6.4
446.339	6.38
446.693	6.35
447.048	6.32
447.403	6.29
447.757	6.24
448.112	6.2
448.466	6.16
448.82	6.11
449.175	6.07
449.529	6.03
449.883	6
450.238	5.95
450.592	5.93
450.946	5.91
451.3	5.9
451.654	5.9
452.008	5.89
452.362	5.88
452.716	5.87
453.07	5.86
453.424	5.84
453.778	5.82
454.132	5.8
454.486	5.78
454.839	5.75
455.193	5.71
455.547	5.69
455.9	5.65
456.254	5.62
456.607	5.58
456.961	5.54
457.314	5.51
457.668	5.5
458.021	5.49
458.375	5.48
458.728	5.48
459.081	5.49
459.434	5.5
459.787	5.51
460.141	5.53
460.494	5.55
460.847	5.56
461.2	5.58
461.553	5.59
461.906	5.6
462.259	5.62
462.611	5.63
462.964	5.64
463.317	5.66
463.67	5.68
464.022	5.7
464.375	5.72
464.728	5.74
465.08	5.75
465.433	5.77
465.785	5.78
466.138	5.77
466.49	5.76
466.843	5.76
467.195	5.74
467.547	5.73
467.899	5.71
468.252	5.69
468.604	5.67
468.956	5.66
469.308	5.66
469.66	5.67
470.012	5.68
470.364	5.7
470.716	5.72
471.068	5.75
471.42	5.79
471.772	5.84
472.123	5.86
472.475	5.89
472.827	5.91
473.178	5.94
473.53	5.96
473.882	5.99
474.233	6.03
474.585	6.09
474.936	6.18
475.288	6.32
475.639	6.48
475.99	6.67
476.342	6.89
476.693	7.11
477.044	7.34
477.395	7.58
477.746	7.82
478.097	8.06
478.448	8.3
478.8	8.54
479.15	8.75
479.501	8.95
479.852	9.12
480.203	9.29
480.554	9.46
480.905	9.6
481.255	9.75
481.606	9.89
481.957	10.02
482.307	10.14
482.658	10.25
483.009	10.36
483.359	10.47
483.709	10.57
484.06	10.67
484.41	10.76
484.761	10.86
485.111	10.95
485.461	11.03
485.811	11.11
486.162	11.18
486.512	11.24
486.862	11.29
487.212	11.32
487.562	11.34
487.912	11.35
488.262	11.36
488.612	11.35
488.961	11.32
489.311	11.26
489.661	11.17
490.011	11.04
490.36	10.9
490.71	10.74
491.06	10.56
491.409	10.37
491.759	10.18
492.108	9.98
492.458	9.77
492.807	9.56
493.157	9.35
493.506	9.15
493.855	8.97
494.204	8.81
494.554	8.65
494.903	8.5
495.252	8.37
495.601	8.25
495.95	8.13
496.299	8.03
496.648	7.94
496.997	7.86
497.346	7.78
497.695	7.71
498.043	7.65
498.392	7.6
498.741	7.55
499.09	7.51
499.438	7.48
499.787	7.45
500.135	7.44
500.484	7.44
500.832	7.47
501.181	7.5
501.529	7.57
501.878	7.65
502.226	7.75
502.574	7.85
502.923	7.96
503.271	8.08
503.619	8.21
503.967	8.33
504.315	8.46
504.663	8.59
505.011	8.72
505.359	8.86
505.707	9
506.055	9.14
506.403	9.29
506.751	9.45
507.098	9.61
507.446	9.78
507.794	9.96
508.141	10.14
508.489	10.34
508.837	10.55
509.184	10.75
509.531	10.97
509.879	11.19
510.226	11.43
510.574	11.69
510.921	11.95
511.268	12.22
511.616	12.5
511.963	12.79
512.31	13.07
512.657	13.36
513.004	13.64
513.351	13.92
513.698	14.19
514.045	14.44
514.392	14.67
514.739	14.89
515.086	15.09
515.432	15.31
515.779	15.52
516.126	15.73
516.473	15.97
516.819	16.22
517.166	16.5
517.512	16.8
517.859	17.12
518.205	17.45
518.552	17.83
518.898	18.23
519.245	18.69
519.591	19.24
519.937	19.88
520.283	20.61
520.629	21.42
520.976	22.25
521.322	23.12
521.668	24.01
522.014	24.92
522.36	25.81
522.706	26.69
523.052	27.55
523.398	28.35
523.743	29.09
524.089	29.77
524.435	30.39
524.781	31
525.126	31.59
525.472	32.17
525.817	32.74
526.163	33.3
526.509	33.84
526.854	34.39
527.199	34.92
527.545	35.45
527.89	36.01
528.235	36.55
528.581	37.07
528.926	37.55
529.271	38.02
529.616	38.46
529.961	38.88
530.306	39.28
530.651	39.65
530.996	39.99
531.341	40.29
531.686	40.56
532.031	40.81
532.376	41.09
532.721	41.39
533.065	41.72
533.41	42.07
533.755	42.36
534.099	42.61
534.444	42.8
534.788	42.96
535.133	43.08
535.477	43.18
535.822	43.24
536.166	43.25
536.51	43.2
536.855	43.08
537.199	42.92
537.543	42.76
537.887	42.65
538.231	42.58
538.576	42.52
538.92	42.44
539.264	42.35
539.608	42.23
539.951	42.08
540.295	41.93
540.639	41.77
540.983	41.58
541.327	41.37
541.671	41.14
542.014	40.95
542.358	40.78
542.701	40.7
543.045	40.71
543.389	40.75
543.732	40.82
544.075	40.91
544.419	41.01
544.762	41.12
545.105	41.26
545.449	41.4
545.792	41.57
546.135	41.72
546.478	41.83
546.821	41.88
547.165	41.85
547.508	41.75
547.851	41.6
548.194	41.39
548.536	41.14
548.879	40.84
549.222	40.52
549.565	40.2
549.908	39.87
550.25	39.57
550.593	39.35
550.936	39.21
551.278	39.13
551.621	39.1
551.963	39.09
552.306	39.11
552.648	39.17
552.991	39.26
553.333	39.37
553.675	39.52
554.017	39.72
554.36	39.93
554.702	40.18
555.044	40.48
555.386	40.82
555.728	41.2
556.07	41.52
556.412	41.85
556.754	42.11
557.096	42.3
557.438	42.5
557.78	42.7
558.121	42.89
558.463	43.08
558.805	43.27
559.147	43.46
559.488	43.66
559.83	43.85
560.171	44.03
560.513	44.2
560.854	44.38
561.196	44.55
561.537	44.72
561.878	44.88
562.22	45.04
562.561	45.19
562.902	45.35
563.243	45.51
563.584	45.67
563.925	45.83
564.266	45.98
564.607	46.13
564.948	46.29
565.289	46.44
565.63	46.59
565.971	46.74
566.312	46.88
566.653	47.02
566.993	47.17
567.334	47.3
567.675	47.43
568.015	47.55
568.356	47.66
568.696	47.78
569.037	47.89
569.377	47.99
569.718	48.11
570.058	48.21
570.398	48.31
570.739	48.4
571.079	48.5
571.419	48.58
571.759	48.67
572.099	48.75
572.439	48.84
572.779	48.91
573.119	48.99
573.459	49.05
573.799	49.12
574.139	49.18
574.479	49.25
574.819	49.32
575.158	49.39
575.498	49.47
575.838	49.53
576.177	49.59
576.517	49.66
576.856	49.72
577.196	49.79
577.535	49.85
577.875	49.91
578.214	49.97
578.553	50.03
578.893	50.08
579.232	50.14
579.571	50.19
579.91	50.24
580.25	50.29
580.589	50.35
580.928	50.4
581.267	50.46
581.606	50.51
581.945	50.57
582.283	50.63
582.622	50.68
582.961	50.73
583.3	50.8
583.639	50.86
583.977	50.91
584.316	50.97
584.654	51.04
584.993	51.09
585.332	51.16
585.67	51.22
586.008	51.28
586.347	51.33
586.685	51.39
587.024	51.46
587.362	51.53
587.7	51.6
588.038	51.69
588.376	51.77
588.715	51.84
589.053	51.91
589.391	51.97
589.729	52.05
590.067	52.13
590.404	52.21
590.742	52.27
591.08	52.33
591.418	52.4
591.756	52.45
592.093	52.49
592.431	52.54
592.769	52.6
593.106	52.64
593.444	52.69
593.781	52.73
594.119	52.77
594.456	52.81
594.793	52.84
595.131	52.89
595.468	52.93
595.805	52.99
596.143	53.03
596.48	53.08
596.817	53.13
597.154	53.19
597.491	53.25
597.828	53.31
598.165	53.36
598.502	53.41
598.839	53.46
599.176	53.51
599.512	53.54
599.849	53.58
600.186	53.62
600.523	53.67
600.859	53.7
601.196	53.73
601.532	53.76
601.869	53.79
602.205	53.81
602.542	53.84
602.878	53.88
603.215	53.91
603.551	53.94
603.887	53.96
604.223	53.98
604.56	54.02
604.896	54.05
605.232	54.06
605.568	54.09
605.904	54.12
606.24	54.14
606.576	54.16
606.912	54.18
607.248	54.2
607.583	54.22
607.919	54.24
608.255	54.26
608.591	54.29
608.926	54.3
609.262	54.32
609.597	54.33
609.933	54.35
610.268	54.37
610.604	54.37
610.939	54.37
611.275	54.38
611.61	54.39
611.945	54.39
612.281	54.4
612.616	54.39
612.951	54.4
613.286	54.41
613.621	54.42
613.956	54.43
614.291	54.44
614.626	54.45
614.961	54.47
615.296	54.47
615.631	54.48
615.966	54.5
616.3	54.51
616.635	54.53
616.97	54.54
617.304	54.53
617.639	54.55
617.973	54.55
618.308	54.56
618.642	54.57
618.977	54.6
619.311	54.63
619.646	54.66
619.98	54.67
620.314	54.68
620.648	54.72
620.983	54.74
621.317	54.78
621.651	54.81
621.985	54.82
622.319	54.82
622.653	54.86
622.987	54.88
623.321	54.89
623.655	54.91
623.988	54.92
624.322	54.94
624.656	54.96
624.99	54.97
625.323	54.98
625.657	54.98
625.99	54.99
626.324	55.02
626.657	55.03
626.991	55.03
627.324	55.04
627.658	55.07
627.991	55.08
628.324	55.08
628.657	55.09
628.991	55.1
629.324	55.12
629.657	55.13
629.99	55.13
630.323	55.14
630.656	55.14
630.989	55.16
631.322	55.16
631.655	55.18
631.987	55.18
632.32	55.19
632.653	55.19
632.986	55.2
633.318	55.21
633.651	55.23
633.984	55.23
634.316	55.22
634.649	55.23
634.981	55.22
635.313	55.23
635.646	55.25
635.978	55.27
636.31	55.26
636.643	55.27
636.975	55.29
637.307	55.28
637.639	55.31
637.971	55.32
638.303	55.34
638.635	55.35
638.967	55.36
639.299	55.38
639.631	55.41
639.963	55.41
640.295	55.42
640.626	55.44
640.958	55.46
641.29	55.48
641.621	55.48
641.953	55.51
642.285	55.54
642.616	55.56
642.948	55.57
643.279	55.58
643.61	55.6
643.942	55.61
644.273	55.62
644.604	55.63
644.936	55.66
645.267	55.67
645.598	55.7
645.929	55.73
646.26	55.75
646.591	55.76
646.922	55.76
647.253	55.78
647.584	55.8
647.915	55.82
648.245	55.83
648.576	55.86
648.907	55.87
649.238	55.89
649.568	55.9
649.899	55.93
650.229	55.94
650.56	55.96
650.89	55.99
651.221	56
651.551	56.01
651.882	56
652.212	56.02
652.542	56.04
652.872	56.05
653.203	56.04
653.533	56.07
653.863	56.08
654.193	56.11
654.523	56.13
654.853	56.13
655.183	56.16
655.513	56.15
655.843	56.15
656.172	56.15
656.502	56.18
656.832	56.2
657.162	56.22
657.491	56.24
657.821	56.26
658.15	56.28
658.48	56.29
658.809	56.3
659.139	56.3
659.468	56.3
659.798	56.31
660.127	56.31
660.456	56.34
660.785	56.35
661.115	56.36
661.444	56.38
661.773	56.41
662.102	56.41
662.431	56.41
662.76	56.41
663.089	56.42
663.418	56.43
663.747	56.45
664.076	56.46
