Data from UWBM55942_Reflection_00007.txt Node
Date: Sun May 02 14:11:00 EDT 2021
User: vgr7
Spectrometer: USB2G7710
Scans to average: 10
Trigger mode: 4
Integration Time (sec): 1.000000E-1
Electric dark correction enabled: true
Boxcar width: 20
XAxis mode: Wavelengths
Number of Pixels in Spectrum: 2048
>>>>>Begin Spectral Data<<<<<
177.721	-1000
178.105	-77.99
178.488	-320.48
178.871	-594.12
179.254	233.51
179.636	152.04
180.019	72
180.402	32.87
180.785	28.61
181.168	18.49
181.55	7.1
181.933	14.42
182.316	7.61
182.698	6.89
183.081	2.81
183.463	-7.02
183.846	-8.82
184.228	-5.63
184.611	-8.19
184.993	-9.91
185.376	-8.11
185.758	-2.07
186.14	-0.44
186.522	0.09
186.904	-1.76
187.287	0.09
187.669	-0.21
188.051	-0.48
188.433	-0.89
188.815	-3.28
189.197	-4.85
189.579	-3.91
189.961	-1.65
190.342	-3.78
190.724	-3.39
191.106	-2.7
191.488	-3.86
191.869	-7.32
192.251	-11.49
192.633	-11.65
193.014	-11.91
193.396	-13.89
193.777	-9.26
194.159	-8.54
194.54	-9.23
194.922	-12
195.303	-13.65
195.684	-14.5
196.065	-13.12
196.447	-12.58
196.828	-11.85
197.209	-11.3
197.59	-15.47
197.971	-14.45
198.352	-14.19
198.733	-11.93
199.114	-8.84
199.495	-6.77
199.876	-7.6
200.257	-6.73
200.638	-6.83
201.018	-6.15
201.399	-5.11
201.78	-6.95
202.16	-7.51
202.541	-6.82
202.922	-7.96
203.302	-6.94
203.683	-5.5
204.063	-3.57
204.444	-2.69
204.824	-0.11
205.204	-2.22
205.585	-1.65
205.965	-0.63
206.345	0.49
206.725	-0.18
207.106	0.85
207.486	1.73
207.866	4.18
208.246	5.14
208.626	4.68
209.006	4.14
209.386	2.47
209.766	0.62
210.145	0.33
210.525	1.63
210.905	4.72
211.285	3.46
211.664	4.19
212.044	2.55
212.424	0.73
212.803	0.53
213.183	2.14
213.562	3.88
213.942	3.55
214.321	1.8
214.701	0.58
215.08	0.58
215.459	0.69
215.838	0.17
216.218	-0.03
216.597	-1.27
216.976	-1.59
217.355	0.22
217.734	0.22
218.113	-0.15
218.492	-0.64
218.871	-1.12
219.25	-1.82
219.629	-1.92
220.008	-3.09
220.387	-5
220.766	-2.05
221.144	-2.71
221.523	-1.63
221.902	-1.48
222.28	-0.16
222.659	0.24
223.037	0.84
223.416	2.03
223.794	1.81
224.173	1.62
224.551	1.59
224.929	2.12
225.308	2.53
225.686	3.03
226.064	2.72
226.442	1.94
226.821	3.33
227.199	4.07
227.577	4.33
227.955	5.34
228.333	5.58
228.711	4.99
229.089	3.96
229.467	4.11
229.845	4.29
230.222	4.38
230.6	4.4
230.978	4.26
231.356	4.59
231.733	4.82
232.111	4.87
232.488	4.64
232.866	4.45
233.243	4.14
233.621	4.05
233.998	4.12
234.376	4.27
234.753	4.15
235.13	4.08
235.508	4.34
235.885	4.39
236.262	4.2
236.639	4.1
237.016	4.07
237.393	4.13
237.77	4.01
238.147	4.02
238.524	4.02
238.901	3.86
239.278	3.87
239.655	3.97
240.032	4
240.409	4.05
240.785	4.14
241.162	4.12
241.539	4.16
241.915	4.27
242.292	4.26
242.668	4.21
243.045	4.25
243.421	4.22
243.798	4.25
244.174	4.29
244.551	4.33
244.927	4.34
245.303	4.35
245.679	4.35
246.056	4.3
246.432	4.32
246.808	4.29
247.184	4.28
247.56	4.3
247.936	4.29
248.312	4.27
248.688	4.35
249.064	4.39
249.44	4.41
249.815	4.35
250.191	4.33
250.567	4.37
250.943	4.34
251.318	4.33
251.694	4.34
252.069	4.36
252.445	4.38
252.82	4.36
253.196	4.35
253.571	4.35
253.947	4.34
254.322	4.35
254.697	4.36
255.073	4.34
255.448	4.36
255.823	4.32
256.198	4.3
256.573	4.29
256.948	4.29
257.323	4.25
257.698	4.21
258.073	4.17
258.448	4.14
258.823	4.12
259.198	4.11
259.573	4.11
259.948	4.12
260.322	4.1
260.697	4.06
261.072	4.06
261.446	4.06
261.821	4.04
262.195	4.04
262.57	4.04
262.944	4.04
263.319	4.07
263.693	4.07
264.067	4.03
264.442	4.01
264.816	3.99
265.19	4.01
265.564	4.03
265.938	4.01
266.313	4.01
266.687	4.01
267.061	4
267.435	4.01
267.809	3.97
268.183	3.96
268.556	3.96
268.93	3.94
269.304	3.94
269.678	3.94
270.051	3.91
270.425	3.91
270.799	3.88
271.172	3.9
271.546	3.9
271.919	3.9
272.293	3.89
272.666	3.89
273.04	3.92
273.413	3.95
273.787	3.97
274.16	3.97
274.533	3.97
274.906	3.97
275.279	3.96
275.653	3.98
276.026	4
276.399	4
276.772	4.02
277.145	4.01
277.518	4.02
277.891	4.02
278.263	4.02
278.636	4.01
279.009	4
279.382	4.01
279.755	4.02
280.127	4.04
280.5	4.03
280.872	4.04
281.245	4.05
281.617	4.06
281.99	4.07
282.362	4.08
282.735	4.08
283.107	4.09
283.479	4.1
283.852	4.13
284.224	4.14
284.596	4.15
284.968	4.15
285.34	4.18
285.713	4.19
286.085	4.22
286.457	4.24
286.829	4.24
287.201	4.25
287.572	4.27
287.944	4.28
288.316	4.3
288.688	4.31
289.06	4.33
289.431	4.36
289.803	4.37
290.175	4.41
290.546	4.45
290.918	4.48
291.289	4.5
291.661	4.55
292.032	4.58
292.403	4.62
292.775	4.65
293.146	4.68
293.517	4.72
293.889	4.76
294.26	4.82
294.631	4.86
295.002	4.93
295.373	4.96
295.744	5.01
296.115	5.05
296.486	5.11
296.857	5.15
297.228	5.2
297.599	5.25
297.97	5.31
298.34	5.36
298.711	5.41
299.082	5.44
299.452	5.5
299.823	5.56
300.194	5.61
300.564	5.67
300.935	5.73
301.305	5.77
301.676	5.82
302.046	5.89
302.416	5.96
302.787	6.02
303.157	6.08
303.527	6.16
303.897	6.23
304.267	6.32
304.637	6.39
305.008	6.47
305.378	6.55
305.748	6.63
306.117	6.7
306.487	6.8
306.857	6.88
307.227	6.96
307.597	7.04
307.967	7.12
308.336	7.21
308.706	7.26
309.076	7.33
309.445	7.38
309.815	7.44
310.184	7.49
310.554	7.55
310.923	7.61
311.293	7.68
311.662	7.74
312.031	7.81
312.401	7.89
312.77	7.95
313.139	8
313.508	8.07
313.877	8.14
314.246	8.22
314.616	8.29
314.985	8.34
315.353	8.43
315.722	8.48
316.091	8.56
316.46	8.62
316.829	8.7
317.198	8.77
317.567	8.84
317.935	8.93
318.304	9.02
318.672	9.09
319.041	9.2
319.41	9.27
319.778	9.36
320.147	9.46
320.515	9.52
320.883	9.57
321.252	9.65
321.62	9.7
321.988	9.77
322.357	9.84
322.725	9.92
323.093	9.97
323.461	10.02
323.829	10.11
324.197	10.18
324.565	10.23
324.933	10.3
325.301	10.36
325.669	10.44
326.037	10.5
326.405	10.57
326.772	10.63
327.14	10.68
327.508	10.73
327.875	10.8
328.243	10.86
328.61	10.91
328.978	10.97
329.346	11.01
329.713	11.07
330.08	11.13
330.448	11.16
330.815	11.21
331.182	11.26
331.55	11.31
331.917	11.37
332.284	11.41
332.651	11.46
333.018	11.51
333.385	11.57
333.752	11.63
334.119	11.68
334.486	11.74
334.853	11.8
335.22	11.83
335.587	11.9
335.954	11.97
336.32	12.03
336.687	12.07
337.054	12.1
337.42	12.15
337.787	12.2
338.153	12.25
338.52	12.29
338.886	12.32
339.253	12.37
339.619	12.41
339.986	12.44
340.352	12.5
340.718	12.53
341.084	12.56
341.451	12.6
341.817	12.64
342.183	12.68
342.549	12.74
342.915	12.75
343.281	12.79
343.647	12.81
344.013	12.84
344.379	12.87
344.745	12.9
345.11	12.92
345.476	12.97
345.842	13
346.208	13.03
346.573	13.06
346.939	13.08
347.304	13.11
347.67	13.13
348.035	13.16
348.401	13.19
348.766	13.21
349.132	13.23
349.497	13.24
349.862	13.25
350.228	13.27
350.593	13.27
350.958	13.28
351.323	13.28
351.688	13.3
352.053	13.31
352.418	13.31
352.783	13.31
353.148	13.31
353.513	13.31
353.878	13.3
354.243	13.29
354.608	13.28
354.972	13.28
355.337	13.26
355.702	13.25
356.066	13.25
356.431	13.23
356.795	13.21
357.16	13.19
357.524	13.17
357.889	13.17
358.253	13.15
358.618	13.13
358.982	13.1
359.346	13.08
359.71	13.06
360.075	13.05
360.439	13.01
360.803	12.98
361.167	12.95
361.531	12.91
361.895	12.88
362.259	12.85
362.623	12.8
362.987	12.76
363.351	12.72
363.714	12.67
364.078	12.63
364.442	12.58
364.806	12.55
365.169	12.5
365.533	12.45
365.896	12.41
366.26	12.35
366.623	12.3
366.987	12.25
367.35	12.2
367.714	12.13
368.077	12.07
368.44	12
368.803	11.93
369.167	11.87
369.53	11.79
369.893	11.71
370.256	11.63
370.619	11.54
370.982	11.46
371.345	11.37
371.708	11.29
372.071	11.21
372.434	11.12
372.797	11.03
373.159	10.95
373.522	10.88
373.885	10.8
374.247	10.71
374.61	10.63
374.973	10.54
375.335	10.46
375.698	10.38
376.06	10.29
376.423	10.22
376.785	10.13
377.147	10.04
377.51	9.97
377.872	9.88
378.234	9.8
378.596	9.72
378.958	9.64
379.321	9.55
379.683	9.47
380.045	9.39
380.407	9.32
380.769	9.23
381.13	9.16
381.492	9.09
381.854	9.01
382.216	8.94
382.578	8.88
382.939	8.81
383.301	8.74
383.663	8.67
384.024	8.6
384.386	8.54
384.747	8.47
385.109	8.4
385.47	8.34
385.832	8.28
386.193	8.21
386.554	8.15
386.916	8.08
387.277	8.01
387.638	7.96
387.999	7.9
388.36	7.84
388.721	7.78
389.082	7.73
389.443	7.67
389.804	7.62
390.165	7.56
390.526	7.51
390.887	7.46
391.248	7.41
391.609	7.36
391.969	7.31
392.33	7.26
392.691	7.21
393.051	7.16
393.412	7.1
393.772	7.05
394.133	7
394.493	6.94
394.854	6.89
395.214	6.83
395.574	6.78
395.935	6.73
396.295	6.68
396.655	6.62
397.015	6.57
397.376	6.52
397.736	6.47
398.096	6.42
398.456	6.37
398.816	6.32
399.176	6.27
399.535	6.22
399.895	6.17
400.255	6.13
400.615	6.08
400.975	6.03
401.334	5.99
401.694	5.95
402.054	5.92
402.413	5.87
402.773	5.83
403.132	5.8
403.492	5.76
403.851	5.72
404.211	5.69
404.57	5.66
404.929	5.63
405.288	5.61
405.648	5.58
406.007	5.56
406.366	5.53
406.725	5.5
407.084	5.48
407.443	5.45
407.802	5.43
408.161	5.41
408.52	5.39
408.879	5.37
409.238	5.35
409.596	5.33
409.955	5.31
410.314	5.29
410.673	5.28
411.031	5.26
411.39	5.24
411.748	5.22
412.107	5.21
412.465	5.19
412.824	5.2
413.182	5.21
413.54	5.22
413.899	5.23
414.257	5.24
414.615	5.27
414.974	5.28
415.332	5.31
415.69	5.33
416.048	5.34
416.406	5.37
416.764	5.38
417.122	5.4
417.48	5.42
417.838	5.44
418.195	5.45
418.553	5.46
418.911	5.45
419.269	5.45
419.626	5.43
419.984	5.4
420.342	5.37
420.699	5.34
421.057	5.3
421.414	5.26
421.772	5.23
422.129	5.21
422.486	5.19
422.844	5.17
423.201	5.16
423.558	5.14
423.915	5.13
424.273	5.12
424.63	5.1
424.987	5.09
425.344	5.07
425.701	5.06
426.058	5.04
426.415	5.03
426.772	5.02
427.128	5
427.485	4.97
427.842	4.95
428.199	4.91
428.555	4.88
428.912	4.85
429.269	4.8
429.625	4.77
429.982	4.73
430.338	4.69
430.695	4.65
431.051	4.6
431.407	4.57
431.764	4.55
432.12	4.52
432.476	4.5
432.832	4.48
433.189	4.48
433.545	4.47
433.901	4.48
434.257	4.5
434.613	4.52
434.969	4.55
435.325	4.57
435.681	4.61
436.036	4.64
436.392	4.66
436.748	4.68
437.104	4.69
437.459	4.71
437.815	4.72
438.171	4.74
438.526	4.77
438.882	4.8
439.237	4.83
439.593	4.87
439.948	4.9
440.304	4.94
440.659	4.96
441.014	4.98
441.369	5.01
441.725	5.02
442.08	5.03
442.435	5.04
442.79	5.05
443.145	5.05
443.5	5.04
443.855	5.04
444.21	5.03
444.565	5.03
444.92	5.01
445.275	5
445.629	4.98
445.984	4.96
446.339	4.94
446.693	4.92
447.048	4.9
447.403	4.88
447.757	4.84
448.112	4.82
448.466	4.78
448.82	4.75
449.175	4.72
449.529	4.69
449.883	4.67
450.238	4.63
450.592	4.62
450.946	4.6
451.3	4.59
451.654	4.59
452.008	4.58
452.362	4.58
452.716	4.58
453.07	4.57
453.424	4.55
453.778	4.54
454.132	4.52
454.486	4.51
454.839	4.49
455.193	4.46
455.547	4.44
455.9	4.41
456.254	4.39
456.607	4.36
456.961	4.33
457.314	4.31
457.668	4.3
458.021	4.29
458.375	4.28
458.728	4.28
459.081	4.29
459.434	4.3
459.787	4.31
460.141	4.32
460.494	4.33
460.847	4.34
461.2	4.35
461.553	4.36
461.906	4.37
462.259	4.38
462.611	4.39
462.964	4.4
463.317	4.41
463.67	4.42
464.022	4.44
464.375	4.45
464.728	4.46
465.08	4.47
465.433	4.48
465.785	4.49
466.138	4.49
466.49	4.48
466.843	4.47
467.195	4.46
467.547	4.45
467.899	4.43
468.252	4.41
468.604	4.4
468.956	4.39
469.308	4.38
469.66	4.39
470.012	4.39
470.364	4.4
470.716	4.41
471.068	4.44
471.42	4.46
471.772	4.49
472.123	4.51
472.475	4.53
472.827	4.55
473.178	4.56
473.53	4.58
473.882	4.6
474.233	4.63
474.585	4.67
474.936	4.74
475.288	4.83
475.639	4.96
475.99	5.1
476.342	5.26
476.693	5.43
477.044	5.6
477.395	5.78
477.746	5.96
478.097	6.15
478.448	6.33
478.8	6.51
479.15	6.68
479.501	6.84
479.852	6.98
480.203	7.11
480.554	7.24
480.905	7.36
481.255	7.47
481.606	7.58
481.957	7.69
482.307	7.78
482.658	7.88
483.009	7.97
483.359	8.05
483.709	8.14
484.06	8.22
484.41	8.3
484.761	8.38
485.111	8.46
485.461	8.53
485.811	8.59
486.162	8.66
486.512	8.71
486.862	8.76
487.212	8.78
487.562	8.8
487.912	8.82
488.262	8.82
488.612	8.82
488.961	8.8
489.311	8.76
489.661	8.7
490.011	8.62
490.36	8.51
490.71	8.39
491.06	8.26
491.409	8.12
491.759	7.98
492.108	7.83
492.458	7.67
492.807	7.51
493.157	7.35
493.506	7.2
493.855	7.06
494.204	6.93
494.554	6.81
494.903	6.7
495.252	6.59
495.601	6.49
495.95	6.4
496.299	6.32
496.648	6.25
496.997	6.18
497.346	6.12
497.695	6.07
498.043	6.01
498.392	5.97
498.741	5.93
499.09	5.9
499.438	5.87
499.787	5.85
500.135	5.84
500.484	5.84
500.832	5.85
501.181	5.87
501.529	5.92
501.878	5.98
502.226	6.05
502.574	6.13
502.923	6.21
503.271	6.3
503.619	6.4
503.967	6.49
504.315	6.58
504.663	6.68
505.011	6.78
505.359	6.88
505.707	6.98
506.055	7.08
506.403	7.19
506.751	7.31
507.098	7.43
507.446	7.54
507.794	7.67
508.141	7.8
508.489	7.94
508.837	8.08
509.184	8.23
509.531	8.38
509.879	8.53
510.226	8.7
510.574	8.88
510.921	9.06
511.268	9.25
511.616	9.44
511.963	9.63
512.31	9.84
512.657	10.04
513.004	10.23
513.351	10.42
513.698	10.6
514.045	10.77
514.392	10.92
514.739	11.07
515.086	11.22
515.432	11.36
515.779	11.5
516.126	11.64
516.473	11.79
516.819	11.96
517.166	12.15
517.512	12.35
517.859	12.57
518.205	12.8
518.552	13.06
518.898	13.33
519.245	13.64
519.591	14.02
519.937	14.47
520.283	14.99
520.629	15.55
520.976	16.15
521.322	16.77
521.668	17.42
522.014	18.07
522.36	18.72
522.706	19.37
523.052	19.99
523.398	20.58
523.743	21.12
524.089	21.63
524.435	22.09
524.781	22.54
525.126	22.99
525.472	23.43
525.817	23.86
526.163	24.28
526.509	24.7
526.854	25.11
527.199	25.51
527.545	25.92
527.89	26.35
528.235	26.77
528.581	27.18
528.926	27.56
529.271	27.93
529.616	28.28
529.961	28.63
530.306	28.96
530.651	29.27
530.996	29.56
531.341	29.82
531.686	30.06
532.031	30.29
532.376	30.54
532.721	30.82
533.065	31.14
533.41	31.46
533.755	31.76
534.099	32.03
534.444	32.27
534.788	32.48
535.133	32.68
535.477	32.85
535.822	33
536.166	33.12
536.51	33.18
536.855	33.18
537.199	33.16
537.543	33.14
537.887	33.16
538.231	33.2
538.576	33.25
538.92	33.28
539.264	33.31
539.608	33.31
539.951	33.3
540.295	33.28
540.639	33.25
540.983	33.2
541.327	33.14
541.671	33.06
542.014	32.99
542.358	32.95
542.701	32.98
543.045	33.07
543.389	33.2
543.732	33.35
544.075	33.51
544.419	33.68
544.762	33.87
545.105	34.08
545.449	34.29
545.792	34.53
546.135	34.76
546.478	34.95
546.821	35.09
547.165	35.19
547.508	35.22
547.851	35.22
548.194	35.17
548.536	35.08
548.879	34.96
549.222	34.81
549.565	34.67
549.908	34.52
550.25	34.4
550.593	34.34
550.936	34.35
551.278	34.41
551.621	34.51
551.963	34.64
552.306	34.78
552.648	34.96
552.991	35.17
553.333	35.39
553.675	35.66
554.017	35.95
554.36	36.27
554.702	36.62
555.044	37.01
555.386	37.45
555.728	37.94
556.07	38.39
556.412	38.83
556.754	39.2
557.096	39.5
557.438	39.8
557.78	40.11
558.121	40.42
558.463	40.73
558.805	41.04
559.147	41.35
559.488	41.66
559.83	41.97
560.171	42.27
560.513	42.56
560.854	42.86
561.196	43.15
561.537	43.43
561.878	43.71
562.22	43.98
562.561	44.25
562.902	44.51
563.243	44.78
563.584	45.05
563.925	45.32
564.266	45.58
564.607	45.84
564.948	46.09
565.289	46.33
565.63	46.57
565.971	46.8
566.312	47.05
566.653	47.28
566.993	47.51
567.334	47.73
567.675	47.95
568.015	48.17
568.356	48.39
568.696	48.59
569.037	48.79
569.377	48.98
569.718	49.17
570.058	49.34
570.398	49.51
570.739	49.69
571.079	49.85
571.419	50.01
571.759	50.17
572.099	50.32
572.439	50.48
572.779	50.62
573.119	50.77
573.459	50.91
573.799	51.06
574.139	51.2
574.479	51.34
574.819	51.48
575.158	51.6
575.498	51.74
575.838	51.87
576.177	51.99
576.517	52.12
576.856	52.24
577.196	52.36
577.535	52.48
577.875	52.59
578.214	52.7
578.553	52.83
578.893	52.95
579.232	53.06
579.571	53.17
579.91	53.28
580.25	53.38
580.589	53.49
580.928	53.6
581.267	53.71
581.606	53.81
581.945	53.92
582.283	54.03
582.622	54.13
582.961	54.25
583.3	54.35
583.639	54.46
583.977	54.56
584.316	54.67
584.654	54.77
584.993	54.87
585.332	54.97
585.67	55.07
586.008	55.17
586.347	55.26
586.685	55.36
587.024	55.46
587.362	55.56
587.7	55.64
588.038	55.75
588.376	55.84
588.715	55.94
589.053	56.04
589.391	56.13
589.729	56.23
590.067	56.32
590.404	56.41
590.742	56.51
591.08	56.61
591.418	56.68
591.756	56.76
592.093	56.84
592.431	56.91
592.769	56.98
593.106	57.06
593.444	57.13
593.781	57.2
594.119	57.25
594.456	57.32
594.793	57.38
595.131	57.46
595.468	57.51
595.805	57.56
596.143	57.63
596.48	57.69
596.817	57.75
597.154	57.82
597.491	57.88
597.828	57.95
598.165	58.02
598.502	58.09
598.839	58.16
599.176	58.23
599.512	58.28
599.849	58.34
600.186	58.4
600.523	58.44
600.859	58.49
601.196	58.53
601.532	58.59
601.869	58.63
602.205	58.68
602.542	58.73
602.878	58.78
603.215	58.82
603.551	58.86
603.887	58.9
604.223	58.93
604.56	58.96
604.896	59
605.232	59.04
605.568	59.07
605.904	59.1
606.24	59.12
606.576	59.16
606.912	59.17
607.248	59.21
607.583	59.23
607.919	59.26
608.255	59.3
608.591	59.32
608.926	59.34
609.262	59.38
609.597	59.4
609.933	59.42
610.268	59.45
610.604	59.47
610.939	59.49
611.275	59.51
611.61	59.53
611.945	59.54
612.281	59.56
612.616	59.55
612.951	59.56
613.286	59.57
613.621	59.58
613.956	59.6
614.291	59.63
614.626	59.64
614.961	59.66
615.296	59.68
615.631	59.69
615.966	59.7
616.3	59.71
616.635	59.72
616.97	59.73
617.304	59.75
617.639	59.76
617.973	59.76
618.308	59.79
618.642	59.8
618.977	59.82
619.311	59.85
619.646	59.89
619.98	59.92
620.314	59.94
620.648	59.97
620.983	60
621.317	60.02
621.651	60.04
621.985	60.06
622.319	60.08
622.653	60.09
622.987	60.11
623.321	60.13
623.655	60.14
623.988	60.17
624.322	60.19
624.656	60.21
624.99	60.23
625.323	60.25
625.657	60.28
625.99	60.3
626.324	60.31
626.657	60.32
626.991	60.33
627.324	60.36
627.658	60.38
627.991	60.38
628.324	60.4
628.657	60.41
628.991	60.43
629.324	60.45
629.657	60.46
629.99	60.48
630.323	60.5
630.656	60.53
630.989	60.54
631.322	60.57
631.655	60.59
631.987	60.6
632.32	60.62
632.653	60.63
632.986	60.63
633.318	60.63
633.651	60.65
633.984	60.66
634.316	60.68
634.649	60.68
634.981	60.7
635.313	60.71
635.646	60.72
635.978	60.73
636.31	60.76
636.643	60.77
636.975	60.78
637.307	60.8
637.639	60.8
637.971	60.81
638.303	60.82
638.635	60.84
638.967	60.86
639.299	60.87
639.631	60.87
639.963	60.89
640.295	60.9
640.626	60.93
640.958	60.94
641.29	60.94
641.621	60.97
641.953	60.99
642.285	60.99
642.616	60.99
642.948	61
643.279	61.01
643.61	61.03
643.942	61.04
644.273	61.05
644.604	61.06
644.936	61.07
645.267	61.08
645.598	61.08
645.929	61.09
646.26	61.11
646.591	61.13
646.922	61.15
647.253	61.16
647.584	61.16
647.915	61.17
648.245	61.18
648.576	61.17
648.907	61.19
649.238	61.22
649.568	61.23
649.899	61.24
650.229	61.25
650.56	61.27
650.89	61.28
651.221	61.29
651.551	61.31
651.882	61.33
652.212	61.34
652.542	61.35
652.872	61.36
653.203	61.4
653.533	61.41
653.863	61.44
654.193	61.44
654.523	61.45
654.853	61.47
655.183	61.48
655.513	61.48
655.843	61.5
656.172	61.52
656.502	61.53
656.832	61.54
657.162	61.57
657.491	61.57
657.821	61.57
658.15	61.57
658.48	61.6
658.809	61.61
659.139	61.63
659.468	61.63
659.798	61.64
660.127	61.64
660.456	61.65
660.785	61.67
661.115	61.66
661.444	61.69
661.773	61.7
662.102	61.72
662.431	61.74
662.76	61.73
663.089	61.73
663.418	61.74
663.747	61.75
664.076	61.76
664.404	61.76
664.733	61.77
665.062	61.78
665.39	61.79
665.719	61.8
666.048	61.82
666.376	61.82
666.705	61.81
667.033	61.83
667.362	61.82
