Data from UWBM59058_Reflection_00011.txt Node
Date: Sun May 02 13:02:23 EDT 2021
User: vgr7
Spectrometer: USB2G7710
Scans to average: 10
Trigger mode: 4
Integration Time (sec): 1.000000E-1
Electric dark correction enabled: true
Boxcar width: 20
XAxis mode: Wavelengths
Number of Pixels in Spectrum: 2048
>>>>>Begin Spectral Data<<<<<
177.721	98.58
178.105	99.23
178.488	100.43
178.871	100.88
179.254	100.12
179.636	99.49
180.019	97.11
180.402	94.83
180.785	93.24
181.168	90.57
181.55	87.34
181.933	111.73
182.316	112.48
182.698	114.03
183.081	115.43
183.463	116.52
183.846	117.97
184.228	120.9
184.611	123.45
184.993	128.05
185.376	130.97
185.758	-42.21
186.14	-11.53
186.522	5.5
186.904	17.8
187.287	23.56
187.669	27.13
188.051	26.6
188.433	29.67
188.815	24.93
189.197	25.66
189.579	27.5
189.961	27.71
190.342	25.89
190.724	26.38
191.106	23.77
191.488	25.97
191.869	23.84
192.251	25.32
192.633	21.55
193.014	22.14
193.396	21.03
193.777	25.01
194.159	22.94
194.54	20.48
194.922	20.01
195.303	21.47
195.684	22.21
196.065	21.92
196.447	20.24
196.828	19.56
197.209	21.08
197.59	11.75
197.971	11.61
198.352	12.93
198.733	14.54
199.114	13.57
199.495	13.49
199.876	15.44
200.257	13.15
200.638	13.59
201.018	10
201.399	8.76
201.78	6.77
202.16	6.36
202.541	6.05
202.922	6.81
203.302	3.36
203.683	3.42
204.063	2.32
204.444	4.67
204.824	7.37
205.204	9.63
205.585	16.09
205.965	14.78
206.345	16.29
206.725	12.63
207.106	12.06
207.486	11.93
207.866	11.1
208.246	12.81
208.626	14.73
209.006	17.94
209.386	14.17
209.766	14.47
210.145	14.93
210.525	14.61
210.905	15.56
211.285	17.41
211.664	16.31
212.044	17.62
212.424	18.02
212.803	14.11
213.183	16.07
213.562	15.92
213.942	15.09
214.321	12.9
214.701	12.62
215.08	14.28
215.459	14.53
215.838	14.72
216.218	14.75
216.597	13.1
216.976	10.22
217.355	11.65
217.734	11.34
218.113	11.35
218.492	12.01
218.871	12.56
219.25	12.26
219.629	11.52
220.008	11.34
220.387	10.76
220.766	10.78
221.144	10.6
221.523	11.28
221.902	11.07
222.28	11.72
222.659	13.03
223.037	13.02
223.416	13.86
223.794	14.26
224.173	12.92
224.551	12.97
224.929	12.96
225.308	13.77
225.686	13.33
226.064	13.34
226.442	13.14
226.821	12.3
227.199	12.2
227.577	11.37
227.955	10.8
228.333	10.34
228.711	10.25
229.089	10.3
229.467	9.69
229.845	10.13
230.222	9.91
230.6	9.94
230.978	9.65
231.356	9.2
231.733	9.3
232.111	9.2
232.488	9.1
232.866	9.05
233.243	8.69
233.621	8.68
233.998	8.38
234.376	8.44
234.753	8.52
235.13	8.58
235.508	8.84
235.885	8.65
236.262	8.39
236.639	8.48
237.016	8.44
237.393	8.38
237.77	8.07
238.147	7.9
238.524	7.82
238.901	7.71
239.278	7.58
239.655	7.58
240.032	7.38
240.409	7.33
240.785	7.19
241.162	7.25
241.539	7.15
241.915	7.12
242.292	7.07
242.668	7
243.045	6.95
243.421	6.86
243.798	6.83
244.174	6.79
244.551	6.76
244.927	6.61
245.303	6.59
245.679	6.61
246.056	6.55
246.432	6.52
246.808	6.3
247.184	6.26
247.56	6.21
247.936	6.2
248.312	6.18
248.688	6.21
249.064	6.18
249.44	6.13
249.815	6.13
250.191	6.05
250.567	6
250.943	6.06
251.318	6.07
251.694	6
252.069	5.9
252.445	5.87
252.82	5.95
253.196	5.96
253.571	5.91
253.947	5.98
254.322	5.92
254.697	6.07
255.073	6.03
255.448	6.02
255.823	5.99
256.198	5.94
256.573	5.76
256.948	5.75
257.323	5.75
257.698	5.71
258.073	5.68
258.448	5.58
258.823	5.56
259.198	5.54
259.573	5.55
259.948	5.57
260.322	5.53
260.697	5.52
261.072	5.5
261.446	5.49
261.821	5.47
262.195	5.44
262.57	5.41
262.944	5.4
263.319	5.38
263.693	5.38
264.067	5.41
264.442	5.49
264.816	5.47
265.19	5.44
265.564	5.48
265.938	5.44
266.313	5.49
266.687	5.44
267.061	5.46
267.435	5.46
267.809	5.46
268.183	5.44
268.556	5.47
268.93	5.45
269.304	5.41
269.678	5.4
270.051	5.35
270.425	5.35
270.799	5.37
271.172	5.37
271.546	5.38
271.919	5.38
272.293	5.34
272.666	5.33
273.04	5.33
273.413	5.28
273.787	5.27
274.16	5.27
274.533	5.3
274.906	5.27
275.279	5.29
275.653	5.28
276.026	5.26
276.399	5.22
276.772	5.21
277.145	5.24
277.518	5.26
277.891	5.28
278.263	5.3
278.636	5.3
279.009	5.31
279.382	5.27
279.755	5.22
280.127	5.25
280.5	5.24
280.872	5.24
281.245	5.35
281.617	5.35
281.99	5.36
282.362	5.38
282.735	5.37
283.107	5.36
283.479	5.37
283.852	5.37
284.224	5.41
284.596	5.39
284.968	5.28
285.34	5.28
285.713	5.26
286.085	5.2
286.457	5.21
286.829	5.2
287.201	5.21
287.572	5.27
287.944	5.29
288.316	5.33
288.688	5.38
289.06	5.38
289.431	5.39
289.803	5.4
290.175	5.42
290.546	5.43
290.918	5.45
291.289	5.41
291.661	5.45
292.032	5.42
292.403	5.45
292.775	5.54
293.146	5.54
293.517	5.57
293.889	5.65
294.26	5.66
294.631	5.71
295.002	5.77
295.373	5.81
295.744	5.82
296.115	5.82
296.486	5.78
296.857	5.8
297.228	5.82
297.599	5.84
297.97	5.84
298.34	5.87
298.711	5.85
299.082	5.85
299.452	5.89
299.823	5.95
300.194	5.98
300.564	6.02
300.935	6.04
301.305	6.05
301.676	6.05
302.046	6.08
302.416	6.1
302.787	6.13
303.157	6.09
303.527	6.12
303.897	6.14
304.267	6.18
304.637	6.24
305.008	6.29
305.378	6.32
305.748	6.35
306.117	6.44
306.487	6.53
306.857	6.62
307.227	6.66
307.597	6.68
307.967	6.72
308.336	6.76
308.706	6.79
309.076	6.84
309.445	6.85
309.815	6.76
310.184	6.78
310.554	6.75
310.923	6.82
311.293	6.87
311.662	6.92
312.031	6.93
312.401	6.96
312.77	6.97
313.139	7
313.508	7.04
313.877	7.02
314.246	7.04
314.616	7.05
314.985	7.03
315.353	7.08
315.722	7.1
316.091	7.14
316.46	7.17
316.829	7.24
317.198	7.28
317.567	7.44
317.935	7.47
318.304	7.57
318.672	7.63
319.041	7.68
319.41	7.72
319.778	7.78
320.147	7.84
320.515	7.87
320.883	7.91
321.252	7.89
321.62	7.96
321.988	7.99
322.357	8.02
322.725	8.11
323.093	8.14
323.461	8.18
323.829	8.23
324.197	8.24
324.565	8.26
324.933	8.31
325.301	8.32
325.669	8.37
326.037	8.41
326.405	8.39
326.772	8.4
327.14	8.42
327.508	8.44
327.875	8.48
328.243	8.5
328.61	8.5
328.978	8.54
329.346	8.56
329.713	8.57
330.08	8.58
330.448	8.6
330.815	8.6
331.182	8.64
331.55	8.66
331.917	8.69
332.284	8.71
332.651	8.74
333.018	8.77
333.385	8.8
333.752	8.85
334.119	8.86
334.486	8.9
334.853	8.91
335.22	8.93
335.587	8.96
335.954	8.99
336.32	9.03
336.687	9.05
337.054	9.06
337.42	9.1
337.787	9.11
338.153	9.14
338.52	9.19
338.886	9.24
339.253	9.24
339.619	9.25
339.986	9.24
340.352	9.26
340.718	9.28
341.084	9.29
341.451	9.3
341.817	9.3
342.183	9.31
342.549	9.34
342.915	9.35
343.281	9.38
343.647	9.4
344.013	9.42
344.379	9.45
344.745	9.46
345.11	9.48
345.476	9.51
345.842	9.52
346.208	9.5
346.573	9.51
346.939	9.52
347.304	9.52
347.67	9.53
348.035	9.55
348.401	9.54
348.766	9.55
349.132	9.56
349.497	9.58
349.862	9.57
350.228	9.58
350.593	9.57
350.958	9.56
351.323	9.54
351.688	9.54
352.053	9.53
352.418	9.52
352.783	9.51
353.148	9.49
353.513	9.47
353.878	9.46
354.243	9.45
354.608	9.43
354.972	9.42
355.337	9.4
355.702	9.37
356.066	9.35
356.431	9.32
356.795	9.31
357.16	9.27
357.524	9.25
357.889	9.23
358.253	9.21
358.618	9.19
358.982	9.18
359.346	9.16
359.71	9.14
360.075	9.12
360.439	9.1
360.803	9.07
361.167	9.03
361.531	9.03
361.895	9.01
362.259	8.99
362.623	8.96
362.987	8.91
363.351	8.89
363.714	8.87
364.078	8.85
364.442	8.81
364.806	8.79
365.169	8.74
365.533	8.7
365.896	8.67
366.26	8.64
366.623	8.6
366.987	8.56
367.35	8.54
367.714	8.51
368.077	8.48
368.44	8.44
368.803	8.4
369.167	8.36
369.53	8.32
369.893	8.29
370.256	8.25
370.619	8.22
370.982	8.17
371.345	8.12
371.708	8.08
372.071	8.03
372.434	7.99
372.797	7.97
373.159	7.94
373.522	7.9
373.885	7.85
374.247	7.8
374.61	7.75
374.973	7.69
375.335	7.65
375.698	7.6
376.06	7.57
376.423	7.52
376.785	7.48
377.147	7.43
377.51	7.39
377.872	7.36
378.234	7.33
378.596	7.3
378.958	7.27
379.321	7.24
379.683	7.2
380.045	7.17
380.407	7.13
380.769	7.09
381.13	7.07
381.492	7.04
381.854	7.01
382.216	6.97
382.578	6.93
382.939	6.91
383.301	6.88
383.663	6.85
384.024	6.82
384.386	6.8
384.747	6.76
385.109	6.72
385.47	6.69
385.832	6.67
386.193	6.64
386.554	6.61
386.916	6.59
387.277	6.56
387.638	6.55
387.999	6.52
388.36	6.5
388.721	6.49
389.082	6.47
389.443	6.44
389.804	6.43
390.165	6.41
390.526	6.4
390.887	6.37
391.248	6.34
391.609	6.33
391.969	6.31
392.33	6.3
392.691	6.27
393.051	6.25
393.412	6.22
393.772	6.2
394.133	6.18
394.493	6.15
394.854	6.14
395.214	6.11
395.574	6.09
395.935	6.06
396.295	6.04
396.655	6.02
397.015	6
397.376	5.97
397.736	5.96
398.096	5.93
398.456	5.92
398.816	5.91
399.176	5.87
399.535	5.86
399.895	5.84
400.255	5.83
400.615	5.82
400.975	5.81
401.334	5.78
401.694	5.77
402.054	5.76
402.413	5.72
402.773	5.71
403.132	5.7
403.492	5.68
403.851	5.67
404.211	5.66
404.57	5.66
404.929	5.65
405.288	5.64
405.648	5.64
406.007	5.63
406.366	5.63
406.725	5.63
407.084	5.61
407.443	5.61
407.802	5.6
408.161	5.58
408.52	5.57
408.879	5.57
409.238	5.56
409.596	5.56
409.955	5.56
410.314	5.56
410.673	5.55
411.031	5.55
411.39	5.55
411.748	5.55
412.107	5.55
412.465	5.56
412.824	5.57
413.182	5.59
413.54	5.61
413.899	5.64
414.257	5.67
414.615	5.72
414.974	5.75
415.332	5.79
415.69	5.83
416.048	5.86
416.406	5.9
416.764	5.94
417.122	5.97
417.48	6.01
417.838	6.04
418.195	6.06
418.553	6.09
418.911	6.1
419.269	6.1
419.626	6.09
419.984	6.07
420.342	6.04
420.699	6.02
421.057	5.98
421.414	5.96
421.772	5.94
422.129	5.92
422.486	5.91
422.844	5.9
423.201	5.9
423.558	5.89
423.915	5.88
424.273	5.88
424.63	5.87
424.987	5.87
425.344	5.86
425.701	5.86
426.058	5.86
426.415	5.85
426.772	5.84
427.128	5.84
427.485	5.82
427.842	5.81
428.199	5.78
428.555	5.76
428.912	5.73
429.269	5.69
429.625	5.67
429.982	5.63
430.338	5.59
430.695	5.57
431.051	5.52
431.407	5.49
431.764	5.47
432.12	5.43
432.476	5.42
432.832	5.41
433.189	5.41
433.545	5.42
433.901	5.44
434.257	5.47
434.613	5.5
434.969	5.54
435.325	5.57
435.681	5.62
436.036	5.64
436.392	5.67
436.748	5.68
437.104	5.69
437.459	5.71
437.815	5.73
438.171	5.75
438.526	5.78
438.882	5.82
439.237	5.86
439.593	5.91
439.948	5.95
440.304	5.99
440.659	6.02
441.014	6.04
441.369	6.07
441.725	6.09
442.08	6.12
442.435	6.13
442.79	6.14
443.145	6.14
443.5	6.14
443.855	6.14
444.21	6.13
444.565	6.12
444.92	6.11
445.275	6.1
445.629	6.08
445.984	6.07
446.339	6.05
446.693	6.05
447.048	6.02
447.403	6
447.757	5.97
448.112	5.94
448.466	5.91
448.82	5.88
449.175	5.85
449.529	5.82
449.883	5.8
450.238	5.77
450.592	5.76
450.946	5.75
451.3	5.75
451.654	5.76
452.008	5.76
452.362	5.77
452.716	5.77
453.07	5.77
453.424	5.76
453.778	5.75
454.132	5.73
454.486	5.72
454.839	5.69
455.193	5.66
455.547	5.65
455.9	5.61
456.254	5.58
456.607	5.54
456.961	5.5
457.314	5.48
457.668	5.47
458.021	5.46
458.375	5.46
458.728	5.46
459.081	5.47
459.434	5.48
459.787	5.49
460.141	5.5
460.494	5.51
460.847	5.52
461.2	5.52
461.553	5.54
461.906	5.55
462.259	5.55
462.611	5.56
462.964	5.57
463.317	5.58
463.67	5.59
464.022	5.59
464.375	5.6
464.728	5.6
465.08	5.6
465.433	5.61
465.785	5.6
466.138	5.59
466.49	5.57
466.843	5.55
467.195	5.53
467.547	5.5
467.899	5.48
468.252	5.44
468.604	5.42
468.956	5.39
469.308	5.38
469.66	5.38
470.012	5.37
470.364	5.38
470.716	5.39
471.068	5.41
471.42	5.44
471.772	5.47
472.123	5.49
472.475	5.5
472.827	5.52
473.178	5.53
473.53	5.54
473.882	5.55
474.233	5.58
474.585	5.63
474.936	5.71
475.288	5.83
475.639	5.98
475.99	6.16
476.342	6.35
476.693	6.56
477.044	6.77
477.395	6.99
477.746	7.22
478.097	7.44
478.448	7.67
478.8	7.89
479.15	8.09
479.501	8.28
479.852	8.45
480.203	8.61
480.554	8.76
480.905	8.91
481.255	9.05
481.606	9.18
481.957	9.3
482.307	9.42
482.658	9.54
483.009	9.64
483.359	9.75
483.709	9.85
484.06	9.94
484.41	10.04
484.761	10.13
485.111	10.22
485.461	10.3
485.811	10.38
486.162	10.45
486.512	10.52
486.862	10.56
487.212	10.6
487.562	10.62
487.912	10.64
488.262	10.64
488.612	10.64
488.961	10.61
489.311	10.57
489.661	10.48
490.011	10.36
490.36	10.22
490.71	10.06
491.06	9.89
491.409	9.7
491.759	9.52
492.108	9.32
492.458	9.12
492.807	8.91
493.157	8.7
493.506	8.5
493.855	8.31
494.204	8.14
494.554	7.98
494.903	7.83
495.252	7.68
495.601	7.55
495.95	7.41
496.299	7.29
496.648	7.18
496.997	7.08
497.346	6.98
497.695	6.89
498.043	6.81
498.392	6.73
498.741	6.66
499.09	6.58
499.438	6.51
499.787	6.45
500.135	6.4
500.484	6.37
500.832	6.34
501.181	6.33
501.529	6.34
501.878	6.37
502.226	6.4
502.574	6.45
502.923	6.5
503.271	6.56
503.619	6.62
503.967	6.68
504.315	6.75
504.663	6.81
505.011	6.88
505.359	6.94
505.707	7.01
506.055	7.09
506.403	7.18
506.751	7.27
507.098	7.36
507.446	7.47
507.794	7.58
508.141	7.7
508.489	7.84
508.837	7.98
509.184	8.11
509.531	8.25
509.879	8.41
510.226	8.58
510.574	8.75
510.921	8.93
511.268	9.12
511.616	9.32
511.963	9.53
512.31	9.74
512.657	9.95
513.004	10.16
513.351	10.37
513.698	10.56
514.045	10.75
514.392	10.94
514.739	11.12
515.086	11.29
515.432	11.47
515.779	11.64
516.126	11.84
516.473	12.05
516.819	12.28
517.166	12.52
517.512	12.79
517.859	13.07
518.205	13.37
518.552	13.71
518.898	14.07
519.245	14.48
519.591	14.97
519.937	15.55
520.283	16.2
520.629	16.92
520.976	17.67
521.322	18.44
521.668	19.22
522.014	20
522.36	20.78
522.706	21.56
523.052	22.31
523.398	23.04
523.743	23.71
524.089	24.32
524.435	24.9
524.781	25.48
525.126	26.05
525.472	26.61
525.817	27.17
526.163	27.71
526.509	28.24
526.854	28.77
527.199	29.3
527.545	29.83
527.89	30.38
528.235	30.92
528.581	31.43
528.926	31.9
529.271	32.37
529.616	32.81
529.961	33.23
530.306	33.6
530.651	33.96
530.996	34.29
531.341	34.6
531.686	34.89
532.031	35.17
532.376	35.48
532.721	35.81
533.065	36.18
533.41	36.55
533.755	36.88
534.099	37.15
534.444	37.4
534.788	37.62
535.133	37.82
535.477	37.99
535.822	38.13
536.166	38.22
536.51	38.25
536.855	38.22
537.199	38.15
537.543	38.08
537.887	38.04
538.231	38.05
538.576	38.05
538.92	38.04
539.264	38.01
539.608	37.96
539.951	37.88
540.295	37.79
540.639	37.69
540.983	37.56
541.327	37.42
541.671	37.27
542.014	37.15
542.358	37.04
542.701	37.04
543.045	37.1
543.389	37.17
543.732	37.26
544.075	37.39
544.419	37.52
544.762	37.65
545.105	37.81
545.449	37.98
545.792	38.16
546.135	38.33
546.478	38.46
546.821	38.53
547.165	38.53
547.508	38.47
547.851	38.36
548.194	38.2
548.536	37.99
548.879	37.75
549.222	37.48
549.565	37.2
549.908	36.92
550.25	36.69
550.593	36.51
550.936	36.41
551.278	36.37
551.621	36.37
551.963	36.39
552.306	36.43
552.648	36.51
552.991	36.61
553.333	36.72
553.675	36.89
554.017	37.09
554.36	37.3
554.702	37.56
555.044	37.86
555.386	38.21
555.728	38.56
556.07	38.86
556.412	39.17
556.754	39.37
557.096	39.56
557.438	39.74
557.78	39.94
558.121	40.12
558.463	40.31
558.805	40.5
559.147	40.68
559.488	40.86
559.83	41.04
560.171	41.22
560.513	41.39
560.854	41.56
561.196	41.72
561.537	41.88
561.878	42.04
562.22	42.2
562.561	42.35
562.902	42.51
563.243	42.68
563.584	42.83
563.925	43
564.266	43.15
564.607	43.31
564.948	43.46
565.289	43.61
565.63	43.77
565.971	43.92
566.312	44.06
566.653	44.21
566.993	44.34
567.334	44.47
567.675	44.6
568.015	44.74
568.356	44.87
568.696	44.99
569.037	45.11
569.377	45.22
569.718	45.34
570.058	45.44
570.398	45.54
570.739	45.64
571.079	45.73
571.419	45.82
571.759	45.92
572.099	46
572.439	46.08
572.779	46.16
573.119	46.24
573.459	46.33
573.799	46.41
574.139	46.5
574.479	46.58
574.819	46.65
575.158	46.72
575.498	46.8
575.838	46.88
576.177	46.95
576.517	47.02
576.856	47.08
577.196	47.15
577.535	47.22
577.875	47.28
578.214	47.34
578.553	47.39
578.893	47.45
579.232	47.51
579.571	47.57
579.91	47.63
580.25	47.69
580.589	47.75
580.928	47.82
581.267	47.89
581.606	47.95
581.945	48.01
582.283	48.09
582.622	48.16
582.961	48.24
583.3	48.31
583.639	48.38
583.977	48.45
584.316	48.53
584.654	48.61
584.993	48.68
585.332	48.76
585.67	48.82
586.008	48.89
586.347	48.98
586.685	49.06
587.024	49.15
587.362	49.22
587.7	49.31
588.038	49.39
588.376	49.47
588.715	49.57
589.053	49.67
589.391	49.76
589.729	49.84
590.067	49.94
590.404	50.03
590.742	50.12
591.08	50.19
591.418	50.27
591.756	50.34
592.093	50.42
592.431	50.49
592.769	50.57
593.106	50.63
593.444	50.69
593.781	50.74
594.119	50.79
594.456	50.85
594.793	50.92
595.131	50.98
595.468	51.04
595.805	51.11
596.143	51.17
596.48	51.23
596.817	51.3
597.154	51.38
597.491	51.45
597.828	51.53
598.165	51.59
598.502	51.66
598.839	51.72
599.176	51.78
599.512	51.85
599.849	51.9
600.186	51.96
600.523	52.01
600.859	52.05
601.196	52.09
601.532	52.14
601.869	52.18
602.205	52.23
602.542	52.27
602.878	52.31
603.215	52.35
603.551	52.38
603.887	52.41
604.223	52.44
604.56	52.47
604.896	52.5
605.232	52.53
605.568	52.56
605.904	52.6
606.24	52.63
606.576	52.66
606.912	52.7
607.248	52.72
607.583	52.75
607.919	52.78
608.255	52.82
608.591	52.84
608.926	52.86
609.262	52.89
609.597	52.91
609.933	52.93
610.268	52.96
610.604	52.98
610.939	53
611.275	53.01
611.61	53.03
611.945	53.04
612.281	53.05
612.616	53.06
612.951	53.08
613.286	53.1
613.621	53.11
613.956	53.12
614.291	53.13
614.626	53.16
614.961	53.18
615.296	53.21
615.631	53.23
615.966	53.24
616.3	53.25
616.635	53.27
616.97	53.28
617.304	53.31
617.639	53.33
617.973	53.36
618.308	53.39
618.642	53.42
618.977	53.47
619.311	53.51
619.646	53.55
619.98	53.6
620.314	53.63
620.648	53.67
620.983	53.7
621.317	53.74
621.651	53.77
621.985	53.79
622.319	53.82
622.653	53.84
622.987	53.87
623.321	53.91
623.655	53.94
623.988	53.97
624.322	53.99
624.656	54
624.99	54.04
625.323	54.06
625.657	54.09
625.99	54.12
626.324	54.16
626.657	54.17
626.991	54.19
627.324	54.22
627.658	54.25
627.991	54.29
628.324	54.31
628.657	54.35
628.991	54.36
629.324	54.39
629.657	54.43
629.99	54.45
630.323	54.48
630.656	54.49
630.989	54.51
631.322	54.54
631.655	54.55
631.987	54.57
632.32	54.58
632.653	54.6
632.986	54.61
633.318	54.61
633.651	54.63
633.984	54.65
634.316	54.67
634.649	54.69
634.981	54.72
635.313	54.74
635.646	54.76
635.978	54.78
636.31	54.8
636.643	54.81
636.975	54.82
637.307	54.83
637.639	54.85
637.971	54.88
638.303	54.91
638.635	54.92
638.967	54.94
639.299	54.96
639.631	54.97
639.963	55
640.295	55.03
640.626	55.05
640.958	55.05
641.29	55.06
641.621	55.08
641.953	55.12
642.285	55.13
642.616	55.15
642.948	55.16
643.279	55.2
643.61	55.23
643.942	55.25
644.273	55.28
644.604	55.29
644.936	55.31
645.267	55.32
645.598	55.35
645.929	55.37
646.26	55.39
646.591	55.41
646.922	55.44
647.253	55.46
647.584	55.48
647.915	55.5
648.245	55.53
648.576	55.55
648.907	55.56
649.238	55.57
649.568	55.59
649.899	55.62
650.229	55.66
650.56	55.69
650.89	55.72
651.221	55.73
651.551	55.77
651.882	55.79
652.212	55.8
652.542	55.82
652.872	55.82
653.203	55.85
653.533	55.86
653.863	55.89
654.193	55.93
654.523	55.95
654.853	55.96
655.183	55.98
655.513	55.99
655.843	56.01
656.172	56.04
656.502	56.05
656.832	56.06
657.162	56.06
657.491	56.08
657.821	56.09
658.15	56.12
658.48	56.14
658.809	56.17
659.139	56.19
659.468	56.22
659.798	56.24
660.127	56.27
660.456	56.31
660.785	56.33
661.115	56.33
661.444	56.35
661.773	56.37
662.102	56.37
662.431	56.39
662.76	56.41
663.089	56.43
663.418	56.43
663.747	56.43
664.076	56.44
664.404	56.46
664.733	56.49
665.062	56.5
665.39	56.52
665.719	56.53
666.048	56.55
666.376	56.58
666.705	56.58
667.033	56.6
667.362	56.6
667.69	56.6
668.018	56.63
668.347	56.66
668.675	56.65
669.003	56.66
