Data from UWBM79812_Reflection_00003.txt Node
Date: Sun May 02 13:57:03 EDT 2021
User: vgr7
Spectrometer: USB2G7710
Scans to average: 10
Trigger mode: 4
Integration Time (sec): 1.000000E-1
Electric dark correction enabled: true
Boxcar width: 20
XAxis mode: Wavelengths
Number of Pixels in Spectrum: 2048
>>>>>Begin Spectral Data<<<<<
177.721	81.36
178.105	116.97
178.488	151.92
178.871	175.2
179.254	135.48
179.636	110.08
180.019	81.22
180.402	67.85
180.785	61.24
181.168	62.64
181.55	54.29
181.933	50.57
182.316	41.73
182.698	39.74
183.081	31.7
183.463	28.87
183.846	30.72
184.228	30.96
184.611	28.79
184.993	27.69
185.376	28.27
185.758	33.05
186.14	37.41
186.522	35.31
186.904	31.82
187.287	30.34
187.669	29.67
188.051	27.13
188.433	26.72
188.815	24.1
189.197	23.23
189.579	20.85
189.961	21.78
190.342	18.87
190.724	17.32
191.106	17.77
191.488	17.98
191.869	15.82
192.251	14.69
192.633	14.69
193.014	14.76
193.396	12.21
193.777	12.11
194.159	13.27
194.54	12.11
194.922	11.25
195.303	10.18
195.684	9.33
196.065	9.33
196.447	10.54
196.828	7.89
197.209	6.39
197.59	5.65
197.971	5.57
198.352	5.53
198.733	8.44
199.114	10.02
199.495	9.43
199.876	8.5
200.257	8.73
200.638	6.38
201.018	6.4
201.399	5.6
201.78	5.35
202.16	6.25
202.541	6.51
202.922	6.02
203.302	5.77
203.683	7.26
204.063	8.57
204.444	8.15
204.824	8.38
205.204	7.61
205.585	7.77
205.965	9.88
206.345	9.79
206.725	8.97
207.106	9.27
207.486	8.66
207.866	10.85
208.246	8.48
208.626	6.84
209.006	8.16
209.386	8.33
209.766	7.13
210.145	7.62
210.525	7.88
210.905	9.52
211.285	9.58
211.664	9.66
212.044	7.57
212.424	7.92
212.803	8.82
213.183	7.7
213.562	8.59
213.942	8.81
214.321	7.59
214.701	6.67
215.08	6.62
215.459	7.25
215.838	6.08
216.218	7.5
216.597	6.41
216.976	5.25
217.355	4.51
217.734	5.46
218.113	5.79
218.492	5.91
218.871	6.27
219.25	5.87
219.629	5.68
220.008	5.87
220.387	5
220.766	6.19
221.144	5.67
221.523	5.53
221.902	5.64
222.28	5.64
222.659	5.01
223.037	5.44
223.416	5.1
223.794	5.33
224.173	6.16
224.551	5.21
224.929	5.57
225.308	5
225.686	4.79
226.064	4.66
226.442	4.95
226.821	5.28
227.199	5.69
227.577	5.64
227.955	5.91
228.333	6.36
228.711	6.44
229.089	6.04
229.467	5.4
229.845	5.53
230.222	5.62
230.6	5.64
230.978	5.41
231.356	5.94
231.733	5.95
232.111	6.06
232.488	6.16
232.866	6.11
233.243	5.67
233.621	5.73
233.998	5.72
234.376	5.55
234.753	5.35
235.13	5.3
235.508	5.35
235.885	5.31
236.262	5.23
236.639	5.18
237.016	5.14
237.393	5.11
237.77	5
238.147	4.95
238.524	4.94
238.901	4.89
239.278	4.96
239.655	4.92
240.032	4.9
240.409	4.84
240.785	4.88
241.162	4.89
241.539	4.86
241.915	4.79
242.292	4.78
242.668	4.72
243.045	4.75
243.421	4.7
243.798	4.64
244.174	4.66
244.551	4.68
244.927	4.72
245.303	4.72
245.679	4.68
246.056	4.66
246.432	4.66
246.808	4.6
247.184	4.6
247.56	4.6
247.936	4.58
248.312	4.56
248.688	4.55
249.064	4.55
249.44	4.53
249.815	4.54
250.191	4.53
250.567	4.51
250.943	4.46
251.318	4.44
251.694	4.45
252.069	4.42
252.445	4.4
252.82	4.39
253.196	4.4
253.571	4.41
253.947	4.38
254.322	4.34
254.697	4.29
255.073	4.26
255.448	4.25
255.823	4.23
256.198	4.22
256.573	4.18
256.948	4.17
257.323	4.14
257.698	4.1
258.073	4.09
258.448	4.06
258.823	4.05
259.198	4.05
259.573	4.02
259.948	4.01
260.322	4.01
260.697	3.99
261.072	3.98
261.446	3.97
261.821	3.95
262.195	3.94
262.57	3.93
262.944	3.91
263.319	3.91
263.693	3.91
264.067	3.9
264.442	3.89
264.816	3.88
265.19	3.88
265.564	3.87
265.938	3.86
266.313	3.87
266.687	3.87
267.061	3.87
267.435	3.86
267.809	3.84
268.183	3.84
268.556	3.83
268.93	3.83
269.304	3.82
269.678	3.84
270.051	3.85
270.425	3.85
270.799	3.84
271.172	3.85
271.546	3.84
271.919	3.85
272.293	3.84
272.666	3.85
273.04	3.86
273.413	3.88
273.787	3.88
274.16	3.9
274.533	3.9
274.906	3.91
275.279	3.91
275.653	3.9
276.026	3.9
276.399	3.91
276.772	3.92
277.145	3.91
277.518	3.92
277.891	3.92
278.263	3.92
278.636	3.93
279.009	3.92
279.382	3.92
279.755	3.92
280.127	3.93
280.5	3.94
280.872	3.93
281.245	3.94
281.617	3.95
281.99	3.95
282.362	3.92
282.735	3.92
283.107	3.93
283.479	3.92
283.852	3.92
284.224	3.91
284.596	3.9
284.968	3.9
285.34	3.89
285.713	3.9
286.085	3.91
286.457	3.9
286.829	3.89
287.201	3.9
287.572	3.91
287.944	3.9
288.316	3.89
288.688	3.88
289.06	3.89
289.431	3.88
289.803	3.9
290.175	3.91
290.546	3.91
290.918	3.93
291.289	3.93
291.661	3.94
292.032	3.92
292.403	3.95
292.775	3.94
293.146	3.94
293.517	3.95
293.889	3.94
294.26	3.96
294.631	3.98
295.002	4
295.373	4
295.744	3.98
296.115	3.99
296.486	4.01
296.857	4.01
297.228	4.03
297.599	4.06
297.97	4.07
298.34	4.08
298.711	4.1
299.082	4.09
299.452	4.1
299.823	4.11
300.194	4.11
300.564	4.13
300.935	4.12
301.305	4.13
301.676	4.13
302.046	4.14
302.416	4.13
302.787	4.12
303.157	4.13
303.527	4.14
303.897	4.15
304.267	4.15
304.637	4.17
305.008	4.16
305.378	4.16
305.748	4.16
306.117	4.15
306.487	4.16
306.857	4.16
307.227	4.17
307.597	4.17
307.967	4.17
308.336	4.19
308.706	4.19
309.076	4.18
309.445	4.17
309.815	4.15
310.184	4.13
310.554	4.12
310.923	4.14
311.293	4.14
311.662	4.13
312.031	4.12
312.401	4.13
312.77	4.12
313.139	4.11
313.508	4.12
313.877	4.12
314.246	4.13
314.616	4.13
314.985	4.14
315.353	4.13
315.722	4.12
316.091	4.14
316.46	4.12
316.829	4.11
317.198	4.12
317.567	4.12
317.935	4.13
318.304	4.13
318.672	4.12
319.041	4.11
319.41	4.1
319.778	4.1
320.147	4.09
320.515	4.09
320.883	4.08
321.252	4.07
321.62	4.06
321.988	4.05
322.357	4.05
322.725	4.05
323.093	4.06
323.461	4.05
323.829	4.06
324.197	4.06
324.565	4.05
324.933	4.06
325.301	4.06
325.669	4.07
326.037	4.06
326.405	4.06
326.772	4.06
327.14	4.06
327.508	4.03
327.875	4.03
328.243	4.03
328.61	4.02
328.978	4.01
329.346	4
329.713	4
330.08	4.01
330.448	3.99
330.815	3.98
331.182	3.97
331.55	3.98
331.917	3.99
332.284	3.96
332.651	3.95
333.018	3.95
333.385	3.94
333.752	3.94
334.119	3.94
334.486	3.94
334.853	3.93
335.22	3.93
335.587	3.93
335.954	3.94
336.32	3.94
336.687	3.94
337.054	3.94
337.42	3.94
337.787	3.94
338.153	3.94
338.52	3.93
338.886	3.92
339.253	3.92
339.619	3.92
339.986	3.93
340.352	3.94
340.718	3.95
341.084	3.94
341.451	3.95
341.817	3.94
342.183	3.95
342.549	3.96
342.915	3.95
343.281	3.95
343.647	3.95
344.013	3.95
344.379	3.95
344.745	3.95
345.11	3.95
345.476	3.96
345.842	3.97
346.208	3.98
346.573	3.97
346.939	3.97
347.304	3.99
347.67	3.98
348.035	3.99
348.401	3.99
348.766	4
349.132	4
349.497	4.01
349.862	4.02
350.228	4.02
350.593	4.02
350.958	4.01
351.323	4.01
351.688	4.02
352.053	4.02
352.418	4.03
352.783	4.02
353.148	4.02
353.513	4.02
353.878	4.02
354.243	4.02
354.608	4.02
354.972	4.02
355.337	4.02
355.702	4.02
356.066	4.02
356.431	4.01
356.795	4.01
357.16	3.99
357.524	4
357.889	4
358.253	4
358.618	3.99
358.982	3.99
359.346	4
359.71	4
360.075	4
360.439	4
360.803	3.99
361.167	3.99
361.531	4
361.895	4
362.259	4
362.623	4
362.987	4
363.351	4
363.714	4
364.078	4
364.442	3.99
364.806	4
365.169	3.99
365.533	4.01
365.896	4
366.26	4.01
366.623	4.01
366.987	4
367.35	4
367.714	4.01
368.077	4.01
368.44	4.01
368.803	4.01
369.167	4.02
369.53	4.01
369.893	4.01
370.256	4.01
370.619	4.01
370.982	4.02
371.345	4.03
371.708	4.03
372.071	4.04
372.434	4.05
372.797	4.05
373.159	4.05
373.522	4.06
373.885	4.07
374.247	4.07
374.61	4.06
374.973	4.06
375.335	4.07
375.698	4.06
376.06	4.06
376.423	4.05
376.785	4.05
377.147	4.05
377.51	4.05
377.872	4.05
378.234	4.05
378.596	4.05
378.958	4.06
379.321	4.05
379.683	4.05
380.045	4.05
380.407	4.05
380.769	4.05
381.13	4.05
381.492	4.05
381.854	4.05
382.216	4.04
382.578	4.05
382.939	4.05
383.301	4.05
383.663	4.05
384.024	4.05
384.386	4.05
384.747	4.05
385.109	4.06
385.47	4.05
385.832	4.05
386.193	4.04
386.554	4.04
386.916	4.04
387.277	4.04
387.638	4.04
387.999	4.04
388.36	4.04
388.721	4.03
389.082	4.03
389.443	4.04
389.804	4.03
390.165	4.04
390.526	4.05
390.887	4.05
391.248	4.05
391.609	4.05
391.969	4.05
392.33	4.05
392.691	4.06
393.051	4.06
393.412	4.06
393.772	4.06
394.133	4.07
394.493	4.07
394.854	4.07
395.214	4.07
395.574	4.08
395.935	4.08
396.295	4.08
396.655	4.08
397.015	4.08
397.376	4.08
397.736	4.08
398.096	4.08
398.456	4.09
398.816	4.1
399.176	4.1
399.535	4.1
399.895	4.1
400.255	4.1
400.615	4.11
400.975	4.11
401.334	4.12
401.694	4.12
402.054	4.13
402.413	4.13
402.773	4.13
403.132	4.14
403.492	4.14
403.851	4.14
404.211	4.15
404.57	4.16
404.929	4.15
405.288	4.15
405.648	4.16
406.007	4.17
406.366	4.17
406.725	4.17
407.084	4.17
407.443	4.17
407.802	4.18
408.161	4.18
408.52	4.18
408.879	4.19
409.238	4.19
409.596	4.19
409.955	4.2
410.314	4.2
410.673	4.2
411.031	4.21
411.39	4.22
411.748	4.23
412.107	4.24
412.465	4.26
412.824	4.28
413.182	4.31
413.54	4.34
413.899	4.37
414.257	4.4
414.615	4.45
414.974	4.48
415.332	4.53
415.69	4.57
416.048	4.61
416.406	4.65
416.764	4.68
417.122	4.72
417.48	4.76
417.838	4.8
418.195	4.83
418.553	4.85
418.911	4.87
419.269	4.88
419.626	4.88
419.984	4.88
420.342	4.86
420.699	4.85
421.057	4.83
421.414	4.82
421.772	4.81
422.129	4.8
422.486	4.8
422.844	4.8
423.201	4.8
423.558	4.8
423.915	4.8
424.273	4.81
424.63	4.81
424.987	4.81
425.344	4.81
425.701	4.81
426.058	4.82
426.415	4.82
426.772	4.82
427.128	4.82
427.485	4.82
427.842	4.8
428.199	4.79
428.555	4.77
428.912	4.75
429.269	4.73
429.625	4.71
429.982	4.68
430.338	4.65
430.695	4.63
431.051	4.59
431.407	4.57
431.764	4.55
432.12	4.53
432.476	4.52
432.832	4.51
433.189	4.52
433.545	4.52
433.901	4.54
434.257	4.56
434.613	4.59
434.969	4.62
435.325	4.65
435.681	4.7
436.036	4.72
436.392	4.75
436.748	4.77
437.104	4.78
437.459	4.8
437.815	4.82
438.171	4.84
438.526	4.88
438.882	4.91
439.237	4.96
439.593	4.99
439.948	5.03
440.304	5.07
440.659	5.1
441.014	5.13
441.369	5.16
441.725	5.18
442.08	5.2
442.435	5.22
442.79	5.23
443.145	5.24
443.5	5.24
443.855	5.24
444.21	5.24
444.565	5.24
444.92	5.24
445.275	5.23
445.629	5.22
445.984	5.21
446.339	5.2
446.693	5.2
447.048	5.18
447.403	5.16
447.757	5.14
448.112	5.12
448.466	5.1
448.82	5.07
449.175	5.05
449.529	5.03
449.883	5.01
450.238	4.98
450.592	4.98
450.946	4.97
451.3	4.97
451.654	4.99
452.008	4.99
452.362	5
452.716	5
453.07	5
453.424	4.99
453.778	4.98
454.132	4.98
454.486	4.97
454.839	4.95
455.193	4.93
455.547	4.91
455.9	4.88
456.254	4.86
456.607	4.83
456.961	4.8
457.314	4.77
457.668	4.76
458.021	4.76
458.375	4.75
458.728	4.75
459.081	4.75
459.434	4.76
459.787	4.76
460.141	4.78
460.494	4.79
460.847	4.8
461.2	4.8
461.553	4.81
461.906	4.81
462.259	4.82
462.611	4.82
462.964	4.82
463.317	4.83
463.67	4.83
464.022	4.84
464.375	4.85
464.728	4.85
465.08	4.85
465.433	4.85
465.785	4.84
466.138	4.83
466.49	4.8
466.843	4.78
467.195	4.76
467.547	4.74
467.899	4.71
468.252	4.67
468.604	4.64
468.956	4.62
469.308	4.6
469.66	4.6
470.012	4.59
470.364	4.59
470.716	4.59
471.068	4.61
471.42	4.63
471.772	4.66
472.123	4.67
472.475	4.68
472.827	4.69
473.178	4.7
473.53	4.72
473.882	4.74
474.233	4.76
474.585	4.8
474.936	4.87
475.288	4.97
475.639	5.1
475.99	5.26
476.342	5.43
476.693	5.62
477.044	5.81
477.395	6
477.746	6.2
478.097	6.4
478.448	6.61
478.8	6.81
479.15	6.99
479.501	7.16
479.852	7.32
480.203	7.48
480.554	7.62
480.905	7.77
481.255	7.9
481.606	8.02
481.957	8.14
482.307	8.26
482.658	8.36
483.009	8.47
483.359	8.57
483.709	8.67
484.06	8.76
484.41	8.85
484.761	8.94
485.111	9.03
485.461	9.11
485.811	9.19
486.162	9.25
486.512	9.31
486.862	9.36
487.212	9.39
487.562	9.41
487.912	9.43
488.262	9.44
488.612	9.43
488.961	9.41
489.311	9.36
489.661	9.28
490.011	9.18
490.36	9.05
490.71	8.91
491.06	8.76
491.409	8.6
491.759	8.42
492.108	8.25
492.458	8.06
492.807	7.87
493.157	7.68
493.506	7.5
493.855	7.33
494.204	7.16
494.554	7
494.903	6.85
495.252	6.71
495.601	6.57
495.95	6.44
496.299	6.31
496.648	6.19
496.997	6.08
497.346	5.97
497.695	5.87
498.043	5.77
498.392	5.67
498.741	5.57
499.09	5.48
499.438	5.39
499.787	5.31
500.135	5.23
500.484	5.16
500.832	5.1
501.181	5.06
501.529	5.03
501.878	5.01
502.226	4.99
502.574	4.99
502.923	4.98
503.271	4.97
503.619	4.97
503.967	4.97
504.315	4.96
504.663	4.95
505.011	4.95
505.359	4.94
505.707	4.93
506.055	4.93
506.403	4.92
506.751	4.92
507.098	4.92
507.446	4.93
507.794	4.93
508.141	4.94
508.489	4.95
508.837	4.97
509.184	4.98
509.531	4.99
509.879	5
510.226	5.02
510.574	5.04
510.921	5.06
511.268	5.08
511.616	5.1
511.963	5.12
512.31	5.14
512.657	5.17
513.004	5.19
513.351	5.21
513.698	5.22
514.045	5.22
514.392	5.23
514.739	5.23
515.086	5.23
515.432	5.22
515.779	5.22
516.126	5.21
516.473	5.21
516.819	5.21
517.166	5.21
517.512	5.22
517.859	5.24
518.205	5.26
518.552	5.29
518.898	5.32
519.245	5.37
519.591	5.43
519.937	5.51
520.283	5.62
520.629	5.73
520.976	5.86
521.322	5.99
521.668	6.13
522.014	6.27
522.36	6.41
522.706	6.54
523.052	6.67
523.398	6.79
523.743	6.9
524.089	6.99
524.435	7.07
524.781	7.15
525.126	7.21
525.472	7.28
525.817	7.34
526.163	7.39
526.509	7.44
526.854	7.49
527.199	7.54
527.545	7.59
527.89	7.65
528.235	7.71
528.581	7.76
528.926	7.81
529.271	7.85
529.616	7.89
529.961	7.93
530.306	7.96
530.651	7.99
530.996	8.01
531.341	8.03
531.686	8.03
532.031	8.03
532.376	8.04
532.721	8.04
533.065	8.05
533.41	8.06
533.755	8.05
534.099	8.03
534.444	8
534.788	7.96
535.133	7.92
535.477	7.87
535.822	7.81
536.166	7.75
536.51	7.67
536.855	7.58
537.199	7.49
537.543	7.4
537.887	7.32
538.231	7.25
538.576	7.18
538.92	7.12
539.264	7.06
539.608	6.99
539.951	6.92
540.295	6.85
540.639	6.78
540.983	6.71
541.327	6.63
541.671	6.55
542.014	6.48
542.358	6.41
542.701	6.36
543.045	6.32
543.389	6.3
543.732	6.27
544.075	6.25
544.419	6.23
544.762	6.21
545.105	6.2
545.449	6.19
545.792	6.18
546.135	6.17
546.478	6.15
546.821	6.12
547.165	6.09
547.508	6.04
547.851	5.99
548.194	5.93
548.536	5.86
548.879	5.78
549.222	5.7
549.565	5.62
549.908	5.54
550.25	5.46
550.593	5.39
550.936	5.34
551.278	5.29
551.621	5.25
551.963	5.22
552.306	5.19
552.648	5.17
552.991	5.15
553.333	5.13
553.675	5.12
554.017	5.12
554.36	5.12
554.702	5.12
555.044	5.13
555.386	5.14
555.728	5.17
556.07	5.18
556.412	5.2
556.754	5.21
557.096	5.21
557.438	5.21
557.78	5.21
558.121	5.21
558.463	5.21
558.805	5.21
559.147	5.21
559.488	5.21
559.83	5.22
560.171	5.22
560.513	5.22
560.854	5.22
561.196	5.23
561.537	5.23
561.878	5.23
562.22	5.23
562.561	5.23
562.902	5.24
563.243	5.24
563.584	5.24
563.925	5.25
564.266	5.25
564.607	5.26
564.948	5.26
565.289	5.26
565.63	5.27
565.971	5.27
566.312	5.28
566.653	5.28
566.993	5.29
567.334	5.29
567.675	5.29
568.015	5.3
568.356	5.3
568.696	5.3
569.037	5.31
569.377	5.31
569.718	5.32
570.058	5.32
570.398	5.32
570.739	5.32
571.079	5.32
571.419	5.33
571.759	5.33
572.099	5.33
572.439	5.33
572.779	5.33
573.119	5.33
573.459	5.33
573.799	5.33
574.139	5.33
574.479	5.33
574.819	5.33
575.158	5.33
575.498	5.33
575.838	5.33
576.177	5.33
576.517	5.33
576.856	5.33
577.196	5.34
577.535	5.34
577.875	5.33
578.214	5.34
578.553	5.33
578.893	5.33
579.232	5.34
579.571	5.33
579.91	5.33
580.25	5.33
580.589	5.33
580.928	5.32
581.267	5.32
581.606	5.32
581.945	5.32
582.283	5.32
582.622	5.33
582.961	5.33
583.3	5.33
583.639	5.33
583.977	5.33
584.316	5.33
584.654	5.33
584.993	5.34
585.332	5.34
585.67	5.34
586.008	5.34
586.347	5.35
586.685	5.35
587.024	5.35
587.362	5.36
587.7	5.36
588.038	5.37
588.376	5.37
588.715	5.37
589.053	5.37
589.391	5.37
589.729	5.37
590.067	5.37
590.404	5.38
590.742	5.38
591.08	5.38
591.418	5.38
591.756	5.39
592.093	5.39
592.431	5.4
592.769	5.4
593.106	5.41
593.444	5.41
593.781	5.41
594.119	5.42
594.456	5.41
594.793	5.42
595.131	5.42
595.468	5.43
595.805	5.43
596.143	5.42
596.48	5.42
596.817	5.42
597.154	5.43
597.491	5.43
597.828	5.43
598.165	5.44
598.502	5.44
598.839	5.44
599.176	5.44
599.512	5.44
599.849	5.44
600.186	5.45
600.523	5.45
600.859	5.45
601.196	5.45
601.532	5.45
601.869	5.45
602.205	5.46
602.542	5.46
602.878	5.47
603.215	5.47
603.551	5.47
603.887	5.48
604.223	5.48
604.56	5.48
604.896	5.49
605.232	5.49
605.568	5.49
605.904	5.49
606.24	5.49
606.576	5.49
606.912	5.49
607.248	5.49
607.583	5.49
607.919	5.49
608.255	5.49
608.591	5.49
608.926	5.5
609.262	5.5
609.597	5.5
609.933	5.5
610.268	5.51
610.604	5.51
610.939	5.51
611.275	5.51
611.61	5.51
611.945	5.51
612.281	5.51
612.616	5.52
612.951	5.51
613.286	5.51
613.621	5.52
613.956	5.51
614.291	5.52
614.626	5.52
614.961	5.52
615.296	5.52
615.631	5.53
615.966	5.53
616.3	5.53
616.635	5.53
616.97	5.53
617.304	5.53
617.639	5.53
617.973	5.53
618.308	5.53
618.642	5.52
618.977	5.52
619.311	5.52
619.646	5.52
619.98	5.52
620.314	5.52
620.648	5.53
620.983	5.53
621.317	5.54
621.651	5.54
621.985	5.55
622.319	5.56
622.653	5.56
622.987	5.56
623.321	5.56
623.655	5.56
623.988	5.56
624.322	5.57
624.656	5.57
624.99	5.58
625.323	5.58
625.657	5.58
625.99	5.58
626.324	5.58
626.657	5.58
626.991	5.59
627.324	5.59
627.658	5.59
627.991	5.59
628.324	5.59
628.657	5.6
628.991	5.6
629.324	5.61
629.657	5.61
629.99	5.61
630.323	5.62
630.656	5.62
630.989	5.62
631.322	5.62
631.655	5.63
631.987	5.63
632.32	5.63
632.653	5.64
632.986	5.65
633.318	5.65
633.651	5.65
633.984	5.65
634.316	5.66
634.649	5.66
634.981	5.67
635.313	5.67
635.646	5.67
635.978	5.67
636.31	5.67
636.643	5.68
636.975	5.69
637.307	5.7
637.639	5.7
637.971	5.7
638.303	5.7
638.635	5.7
638.967	5.7
639.299	5.7
639.631	5.71
639.963	5.72
640.295	5.73
640.626	5.73
640.958	5.74
641.29	5.75
641.621	5.75
641.953	5.76
642.285	5.76
642.616	5.76
642.948	5.76
643.279	5.77
643.61	5.78
643.942	5.78
644.273	5.79
644.604	5.79
644.936	5.8
645.267	5.79
645.598	5.79
645.929	5.8
646.26	5.8
646.591	5.8
646.922	5.8
647.253	5.81
647.584	5.82
647.915	5.82
648.245	5.82
648.576	5.82
648.907	5.82
649.238	5.82
649.568	5.82
649.899	5.82
650.229	5.82
650.56	5.82
650.89	5.82
651.221	5.82
651.551	5.83
651.882	5.83
652.212	5.84
652.542	5.84
652.872	5.84
653.203	5.85
653.533	5.84
653.863	5.84
654.193	5.85
654.523	5.85
654.853	5.85
655.183	5.86
655.513	5.86
655.843	5.86
656.172	5.86
656.502	5.87
656.832	5.87
657.162	5.87
657.491	5.87
657.821	5.87
658.15	5.88
658.48	5.88
658.809	5.88
659.139	5.89
659.468	5.89
659.798	5.91
660.127	5.91
660.456	5.92
660.785	5.93
661.115	5.93
661.444	5.94
661.773	5.95
662.102	5.96
662.431	5.96
662.76	5.97
663.089	5.98
663.418	5.99
663.747	6
664.076	6.01
664.404	6.01
664.733	6.02
665.062	6.03
665.39	6.04
665.719	6.04
666.048	6.05
666.376	6.06
666.705	6.07
667.033	6.08
667.362	6.08
667.69	6.08
668.018	6.08
668.347	6.09
668.675	6.09
669.003	6.11
669.331	6.11
669.659	6.12
669.987	6.12
670.315	6.12
670.643	6.13
670.971	6.13
671.299	6.14
671.627	6.15
671.955	6.15
672.283	6.16
672.61	6.17
672.938	6.18
673.266	6.18
673.593	6.17
673.921	6.18
674.249	6.18
674.576	6.19
674.904	6.18
675.231	6.18
675.558	6.18
675.886	6.19
676.213	6.19
676.54	6.19
676.867	6.19
677.195	6.2
677.522	6.19
677.849	6.2
678.176	6.2
678.503	6.19
678.83	6.2
679.157	6.21
679.484	6.21
679.81	6.21
680.137	6.21
680.464	6.22
680.791	6.23
681.117	6.24
681.444	6.26
681.771	6.25
682.097	6.26
682.424	6.26
682.75	6.25
683.077	6.26
683.403	6.27
683.729	6.26
