Data from UWBM91361_Reflection_00004.txt Node
Date: Sun May 02 12:21:08 EDT 2021
User: vgr7
Spectrometer: USB2G7710
Scans to average: 10
Trigger mode: 4
Integration Time (sec): 1.000000E-1
Electric dark correction enabled: true
Boxcar width: 10
XAxis mode: Wavelengths
Number of Pixels in Spectrum: 2048
>>>>>Begin Spectral Data<<<<<
177.721	45.21
178.105	158.82
178.488	61.03
178.871	23.72
179.254	-113.79
179.636	-89.61
180.019	50.19
180.402	108.33
180.785	44.2
181.168	73.4
181.55	129.36
181.933	57.02
182.316	101.18
182.698	138.26
183.081	123.53
183.463	-54.78
183.846	-7.12
184.228	-10.42
184.611	8.91
184.993	28.84
185.376	34.1
185.758	39.4
186.14	16.84
186.522	22.92
186.904	19.64
187.287	18.68
187.669	13.59
188.051	7.17
188.433	13.69
188.815	12.25
189.197	10.92
189.579	7.37
189.961	11.33
190.342	8.07
190.724	9.85
191.106	5.03
191.488	8.3
191.869	4.11
192.251	3.96
192.633	2.61
193.014	0.11
193.396	0.77
193.777	-0.11
194.159	5.73
194.54	-2.99
194.922	-0.34
195.303	2.09
195.684	5.47
196.065	6.49
196.447	3.84
196.828	3.44
197.209	2.34
197.59	-2.75
197.971	-4.15
198.352	-1.93
198.733	4.49
199.114	3.86
199.495	3.15
199.876	2.7
200.257	6.49
200.638	4.68
201.018	3.19
201.399	0.76
201.78	-0.33
202.16	0.32
202.541	3.41
202.922	1.6
203.302	3.01
203.683	3.76
204.063	3.68
204.444	2.89
204.824	6.79
205.204	7.92
205.585	12.67
205.965	10.13
206.345	11.25
206.725	2.08
207.106	7.9
207.486	9.33
207.866	11.91
208.246	6.5
208.626	11.16
209.006	13.08
209.386	10.74
209.766	9.73
210.145	8.68
210.525	6.1
210.905	6.2
211.285	4.82
211.664	5.16
212.044	6.41
212.424	9.49
212.803	6.82
213.183	9.6
213.562	5.76
213.942	6.12
214.321	2.88
214.701	1.31
215.08	-0.8
215.459	-3.17
215.838	-5.05
216.218	-1.36
216.597	-1.18
216.976	-5.22
217.355	-0.79
217.734	1.68
218.113	-0.77
218.492	4.35
218.871	8.34
219.25	8.47
219.629	9.1
220.008	8.38
220.387	6.82
220.766	4.63
221.144	2.02
221.523	6.55
221.902	5.7
222.28	3.34
222.659	7.83
223.037	9.74
223.416	11.56
223.794	10.53
224.173	10.72
224.551	6.38
224.929	5.86
225.308	5.42
225.686	4.41
226.064	4.42
226.442	2.28
226.821	0.48
227.199	0.59
227.577	-1.55
227.955	-2.52
228.333	-1.97
228.711	-1.25
229.089	1.3
229.467	0.33
229.845	1.42
230.222	2.52
230.6	2.45
230.978	2.72
231.356	1.91
231.733	3
232.111	3.17
232.488	3.46
232.866	3.61
233.243	3.25
233.621	3.94
233.998	3.75
234.376	4.5
234.753	5.41
235.13	5.15
235.508	6.11
235.885	6.42
236.262	6.07
236.639	6.75
237.016	5.99
237.393	6.43
237.77	6.2
238.147	6.22
238.524	6.16
238.901	6.13
239.278	6.04
239.655	6.11
240.032	5.89
240.409	6.06
240.785	5.79
241.162	5.81
241.539	5.6
241.915	5.7
242.292	5.56
242.668	5.29
243.045	5.2
243.421	5.03
243.798	5.05
244.174	5.09
244.551	4.88
244.927	4.72
245.303	4.65
245.679	4.65
246.056	4.48
246.432	4.5
246.808	4.45
247.184	4.59
247.56	4.4
247.936	4.4
248.312	4.37
248.688	4.47
249.064	4.44
249.44	4.42
249.815	4.43
250.191	4.42
250.567	4.4
250.943	4.49
251.318	4.49
251.694	4.4
252.069	4.31
252.445	4.4
252.82	4.41
253.196	4.4
253.571	4.33
253.947	4.53
254.322	4.5
254.697	4.56
255.073	4.47
255.448	4.51
255.823	4.43
256.198	4.3
256.573	4.23
256.948	4.23
257.323	4.28
257.698	4.21
258.073	4.22
258.448	4.21
258.823	4.14
259.198	4.16
259.573	4.2
259.948	4.23
260.322	4.2
260.697	4.2
261.072	4.21
261.446	4.2
261.821	4.17
262.195	4.07
262.57	4.01
262.944	4.01
263.319	4.01
263.693	4.06
264.067	4.07
264.442	4.08
264.816	4.07
265.19	4.06
265.564	4.11
265.938	4.04
266.313	4.04
266.687	4.01
267.061	3.96
267.435	3.87
267.809	3.87
268.183	3.83
268.556	3.89
268.93	3.84
269.304	3.87
269.678	3.82
270.051	3.84
270.425	3.84
270.799	3.81
271.172	3.78
271.546	3.78
271.919	3.83
272.293	3.8
272.666	3.82
273.04	3.81
273.413	3.71
273.787	3.74
274.16	3.75
274.533	3.76
274.906	3.8
275.279	3.87
275.653	3.83
276.026	3.8
276.399	3.72
276.772	3.75
277.145	3.78
277.518	3.78
277.891	3.83
278.263	3.83
278.636	3.86
279.009	3.87
279.382	3.83
279.755	3.76
280.127	3.78
280.5	3.75
280.872	3.72
281.245	3.8
281.617	3.8
281.99	3.79
282.362	3.79
282.735	3.78
283.107	3.77
283.479	3.8
283.852	3.83
284.224	3.9
284.596	3.89
284.968	3.89
285.34	3.9
285.713	3.96
286.085	3.95
286.457	3.97
286.829	3.99
287.201	3.98
287.572	4.03
287.944	4.07
288.316	4.07
288.688	4.12
289.06	4.1
289.431	4.12
289.803	4.13
290.175	4.18
290.546	4.19
290.918	4.24
291.289	4.23
291.661	4.27
292.032	4.24
292.403	4.25
292.775	4.19
293.146	4.18
293.517	4.15
293.889	4.19
294.26	4.17
294.631	4.2
295.002	4.21
295.373	4.22
295.744	4.2
296.115	4.23
296.486	4.18
296.857	4.21
297.228	4.22
297.599	4.25
297.97	4.23
298.34	4.25
298.711	4.2
299.082	4.23
299.452	4.2
299.823	4.2
300.194	4.22
300.564	4.24
300.935	4.26
301.305	4.26
301.676	4.22
302.046	4.2
302.416	4.19
302.787	4.21
303.157	4.22
303.527	4.26
303.897	4.28
304.267	4.34
304.637	4.34
305.008	4.35
305.378	4.34
305.748	4.34
306.117	4.32
306.487	4.31
306.857	4.32
307.227	4.34
307.597	4.35
307.967	4.34
308.336	4.39
308.706	4.43
309.076	4.4
309.445	4.41
309.815	4.39
310.184	4.37
310.554	4.39
310.923	4.35
311.293	4.3
311.662	4.29
312.031	4.25
312.401	4.27
312.77	4.26
313.139	4.27
313.508	4.24
313.877	4.26
314.246	4.27
314.616	4.26
314.985	4.25
315.353	4.25
315.722	4.24
316.091	4.19
316.46	4.15
316.829	4.19
317.198	4.2
317.567	4.25
317.935	4.26
318.304	4.25
318.672	4.3
319.041	4.33
319.41	4.32
319.778	4.38
320.147	4.36
320.515	4.37
320.883	4.36
321.252	4.41
321.62	4.36
321.988	4.39
322.357	4.4
322.725	4.4
323.093	4.4
323.461	4.41
323.829	4.4
324.197	4.42
324.565	4.4
324.933	4.4
325.301	4.39
325.669	4.4
326.037	4.39
326.405	4.36
326.772	4.32
327.14	4.29
327.508	4.26
327.875	4.28
328.243	4.27
328.61	4.3
328.978	4.3
329.346	4.28
329.713	4.22
330.08	4.19
330.448	4.19
330.815	4.14
331.182	4.11
331.55	4.11
331.917	4.09
332.284	4.07
332.651	4.06
333.018	4.07
333.385	4.05
333.752	4.06
334.119	4.06
334.486	4.07
334.853	4.09
335.22	4.07
335.587	4.01
335.954	4.03
336.32	3.97
336.687	3.95
337.054	3.97
337.42	4
337.787	4
338.153	4.02
338.52	4.04
338.886	4.09
339.253	4.1
339.619	4.1
339.986	4.12
340.352	4.13
340.718	4.14
341.084	4.13
341.451	4.12
341.817	4.12
342.183	4.17
342.549	4.17
342.915	4.17
343.281	4.22
343.647	4.23
344.013	4.23
344.379	4.25
344.745	4.25
345.11	4.27
345.476	4.3
345.842	4.3
346.208	4.32
346.573	4.29
346.939	4.29
347.304	4.29
347.67	4.27
348.035	4.27
348.401	4.25
348.766	4.26
349.132	4.28
349.497	4.28
349.862	4.26
350.228	4.26
350.593	4.29
350.958	4.27
351.323	4.26
351.688	4.28
352.053	4.26
352.418	4.3
352.783	4.27
353.148	4.25
353.513	4.25
353.878	4.26
354.243	4.25
354.608	4.26
354.972	4.27
355.337	4.26
355.702	4.25
356.066	4.27
356.431	4.24
356.795	4.23
357.16	4.21
357.524	4.2
357.889	4.21
358.253	4.2
358.618	4.18
358.982	4.2
359.346	4.2
359.71	4.21
360.075	4.18
360.439	4.19
360.803	4.17
361.167	4.17
361.531	4.18
361.895	4.18
362.259	4.2
362.623	4.2
362.987	4.22
363.351	4.23
363.714	4.23
364.078	4.24
364.442	4.24
364.806	4.26
365.169	4.27
365.533	4.26
365.896	4.26
366.26	4.28
366.623	4.26
366.987	4.26
367.35	4.24
367.714	4.26
368.077	4.27
368.44	4.26
368.803	4.25
369.167	4.24
369.53	4.24
369.893	4.24
370.256	4.23
370.619	4.23
370.982	4.19
371.345	4.18
371.708	4.19
372.071	4.18
372.434	4.19
372.797	4.17
373.159	4.19
373.522	4.2
373.885	4.2
374.247	4.2
374.61	4.19
374.973	4.2
375.335	4.19
375.698	4.19
376.06	4.19
376.423	4.19
376.785	4.19
377.147	4.17
377.51	4.19
377.872	4.19
378.234	4.18
378.596	4.2
378.958	4.21
379.321	4.21
379.683	4.22
380.045	4.2
380.407	4.21
380.769	4.22
381.13	4.21
381.492	4.2
381.854	4.21
382.216	4.23
382.578	4.23
382.939	4.23
383.301	4.23
383.663	4.25
384.024	4.25
384.386	4.26
384.747	4.26
385.109	4.24
385.47	4.23
385.832	4.24
386.193	4.24
386.554	4.24
386.916	4.25
387.277	4.24
387.638	4.25
387.999	4.24
388.36	4.24
388.721	4.25
389.082	4.26
389.443	4.25
389.804	4.23
390.165	4.23
390.526	4.23
390.887	4.22
391.248	4.23
391.609	4.23
391.969	4.22
392.33	4.24
392.691	4.25
393.051	4.25
393.412	4.25
393.772	4.25
394.133	4.26
394.493	4.24
394.854	4.24
395.214	4.23
395.574	4.24
395.935	4.23
396.295	4.22
396.655	4.21
397.015	4.21
397.376	4.22
397.736	4.23
398.096	4.22
398.456	4.23
398.816	4.22
399.176	4.22
399.535	4.22
399.895	4.21
400.255	4.2
400.615	4.21
400.975	4.21
401.334	4.21
401.694	4.2
402.054	4.21
402.413	4.22
402.773	4.23
403.132	4.22
403.492	4.21
403.851	4.22
404.211	4.22
404.57	4.23
404.929	4.23
405.288	4.22
405.648	4.21
406.007	4.22
406.366	4.23
406.725	4.23
407.084	4.23
407.443	4.24
407.802	4.23
408.161	4.23
408.52	4.24
408.879	4.24
409.238	4.24
409.596	4.24
409.955	4.24
410.314	4.24
410.673	4.24
411.031	4.25
411.39	4.25
411.748	4.26
412.107	4.26
412.465	4.26
412.824	4.27
413.182	4.28
413.54	4.28
413.899	4.28
414.257	4.28
414.615	4.28
414.974	4.28
415.332	4.29
415.69	4.29
416.048	4.29
416.406	4.3
416.764	4.31
417.122	4.31
417.48	4.32
417.838	4.33
418.195	4.34
418.553	4.34
418.911	4.35
419.269	4.36
419.626	4.37
419.984	4.38
420.342	4.38
420.699	4.39
421.057	4.4
421.414	4.41
421.772	4.41
422.129	4.42
422.486	4.42
422.844	4.43
423.201	4.43
423.558	4.43
423.915	4.44
424.273	4.43
424.63	4.43
424.987	4.43
425.344	4.43
425.701	4.43
426.058	4.43
426.415	4.43
426.772	4.42
427.128	4.41
427.485	4.4
427.842	4.39
428.199	4.39
428.555	4.38
428.912	4.37
429.269	4.37
429.625	4.36
429.982	4.36
430.338	4.35
430.695	4.35
431.051	4.34
431.407	4.34
431.764	4.35
432.12	4.35
432.476	4.34
432.832	4.34
433.189	4.34
433.545	4.34
433.901	4.34
434.257	4.34
434.613	4.35
434.969	4.35
435.325	4.36
435.681	4.37
436.036	4.37
436.392	4.38
436.748	4.39
437.104	4.39
437.459	4.4
437.815	4.41
438.171	4.41
438.526	4.41
438.882	4.41
439.237	4.42
439.593	4.43
439.948	4.43
440.304	4.43
440.659	4.43
441.014	4.43
441.369	4.44
441.725	4.44
442.08	4.45
442.435	4.45
442.79	4.45
443.145	4.45
443.5	4.45
443.855	4.44
444.21	4.44
444.565	4.44
444.92	4.44
445.275	4.43
445.629	4.44
445.984	4.44
446.339	4.44
446.693	4.44
447.048	4.43
447.403	4.44
447.757	4.44
448.112	4.43
448.466	4.43
448.82	4.43
449.175	4.43
449.529	4.42
449.883	4.42
450.238	4.41
450.592	4.41
450.946	4.4
451.3	4.4
451.654	4.4
452.008	4.39
452.362	4.39
452.716	4.38
453.07	4.38
453.424	4.38
453.778	4.38
454.132	4.37
454.486	4.37
454.839	4.37
455.193	4.37
455.547	4.38
455.9	4.38
456.254	4.38
456.607	4.39
456.961	4.4
457.314	4.41
457.668	4.41
458.021	4.41
458.375	4.42
458.728	4.42
459.081	4.42
459.434	4.43
459.787	4.43
460.141	4.43
460.494	4.43
460.847	4.43
461.2	4.42
461.553	4.43
461.906	4.43
462.259	4.43
462.611	4.43
462.964	4.43
463.317	4.43
463.67	4.42
464.022	4.41
464.375	4.4
464.728	4.4
465.08	4.4
465.433	4.4
465.785	4.39
466.138	4.39
466.49	4.38
466.843	4.37
467.195	4.37
467.547	4.38
467.899	4.38
468.252	4.38
468.604	4.38
468.956	4.38
469.308	4.39
469.66	4.38
470.012	4.38
470.364	4.39
470.716	4.39
471.068	4.4
471.42	4.4
471.772	4.4
472.123	4.41
472.475	4.4
472.827	4.41
473.178	4.41
473.53	4.41
473.882	4.41
474.233	4.41
474.585	4.42
474.936	4.42
475.288	4.43
475.639	4.43
475.99	4.43
476.342	4.43
476.693	4.43
477.044	4.44
477.395	4.44
477.746	4.44
478.097	4.45
478.448	4.48
478.8	4.56
479.15	4.68
479.501	4.84
479.852	5.01
480.203	5.19
480.554	5.37
480.905	5.56
481.255	5.75
481.606	5.93
481.957	6.13
482.307	6.3
482.658	6.45
483.009	6.59
483.359	6.71
483.709	6.81
484.06	6.9
484.41	7
484.761	7.08
485.111	7.17
485.461	7.24
485.811	7.32
486.162	7.35
486.512	7.34
486.862	7.3
487.212	7.24
487.562	7.16
487.912	7.06
488.262	6.94
488.612	6.82
488.961	6.69
489.311	6.54
489.661	6.39
490.011	6.24
490.36	6.09
490.71	5.93
491.06	5.76
491.409	5.61
491.759	5.48
492.108	5.36
492.458	5.26
492.807	5.18
493.157	5.1
493.506	5.01
493.855	4.94
494.204	4.86
494.554	4.79
494.903	4.72
495.252	4.66
495.601	4.6
495.95	4.55
496.299	4.5
496.648	4.45
496.997	4.42
497.346	4.4
497.695	4.4
498.043	4.43
498.392	4.46
498.741	4.52
499.09	4.54
499.438	4.56
499.787	4.56
500.135	4.57
500.484	4.57
500.832	4.58
501.181	4.57
501.529	4.57
501.878	4.58
502.226	4.58
502.574	4.58
502.923	4.58
503.271	4.58
503.619	4.59
503.967	4.59
504.315	4.6
504.663	4.6
505.011	4.61
505.359	4.61
505.707	4.62
506.055	4.63
506.403	4.64
506.751	4.64
507.098	4.65
507.446	4.66
507.794	4.66
508.141	4.66
508.489	4.67
508.837	4.67
509.184	4.67
509.531	4.68
509.879	4.69
510.226	4.69
510.574	4.7
510.921	4.7
511.268	4.71
511.616	4.72
511.963	4.71
512.31	4.72
512.657	4.72
513.004	4.72
513.351	4.73
513.698	4.74
514.045	4.74
514.392	4.75
514.739	4.75
515.086	4.76
515.432	4.77
515.779	4.78
516.126	4.78
516.473	4.79
516.819	4.79
517.166	4.79
517.512	4.8
517.859	4.8
518.205	4.8
518.552	4.8
518.898	4.81
519.245	4.82
519.591	4.82
519.937	4.82
520.283	4.82
520.629	4.82
520.976	4.82
521.322	4.83
521.668	4.83
522.014	4.83
522.36	4.83
522.706	4.83
523.052	4.86
523.398	4.9
523.743	4.98
524.089	5.07
524.435	5.18
524.781	5.3
525.126	5.42
525.472	5.53
525.817	5.65
526.163	5.76
526.509	5.85
526.854	5.94
527.199	6.01
527.545	6.05
527.89	6.08
528.235	6.11
528.581	6.13
528.926	6.15
529.271	6.17
529.616	6.19
529.961	6.21
530.306	6.21
530.651	6.2
530.996	6.15
531.341	6.09
531.686	6.02
532.031	5.92
532.376	5.81
532.721	5.68
533.065	5.55
533.41	5.44
533.755	5.33
534.099	5.24
534.444	5.17
534.788	5.11
535.133	5.08
535.477	5.05
535.822	5.02
536.166	4.99
536.51	4.97
536.855	4.95
537.199	4.94
537.543	4.94
537.887	4.94
538.231	4.95
538.576	4.96
538.92	4.98
539.264	5
539.608	5.04
539.951	5.07
540.295	5.1
540.639	5.11
540.983	5.12
541.327	5.11
541.671	5.11
542.014	5.12
542.358	5.12
542.701	5.12
543.045	5.12
543.389	5.12
543.732	5.12
544.075	5.12
544.419	5.11
544.762	5.1
545.105	5.08
545.449	5.06
545.792	5.03
546.135	5
546.478	4.97
546.821	4.95
547.165	4.93
547.508	4.93
547.851	4.93
548.194	4.94
548.536	4.95
548.879	4.96
549.222	4.96
549.565	4.94
549.908	4.94
550.25	4.93
550.593	4.92
550.936	4.92
551.278	4.91
551.621	4.9
551.963	4.91
552.306	4.91
552.648	4.9
552.991	4.89
553.333	4.88
553.675	4.88
554.017	4.88
554.36	4.88
554.702	4.88
555.044	4.88
555.386	4.87
555.728	4.87
556.07	4.86
556.412	4.85
556.754	4.85
557.096	4.85
557.438	4.85
557.78	4.85
558.121	4.85
558.463	4.85
558.805	4.85
559.147	4.85
559.488	4.85
559.83	4.86
560.171	4.88
560.513	4.88
560.854	4.88
561.196	4.88
561.537	4.9
561.878	4.9
562.22	4.91
562.561	4.91
562.902	4.92
563.243	4.93
563.584	4.94
563.925	4.94
564.266	4.94
564.607	4.95
564.948	4.95
565.289	4.96
565.63	4.96
565.971	4.97
566.312	4.98
566.653	4.98
566.993	4.98
567.334	4.98
567.675	4.98
568.015	4.98
568.356	4.98
568.696	4.98
569.037	4.98
569.377	4.99
569.718	5
570.058	5
570.398	5.01
570.739	5.01
571.079	5.02
571.419	5.02
571.759	5.03
572.099	5.02
572.439	5.02
572.779	5.03
573.119	5.03
573.459	5.02
573.799	5.02
574.139	5.02
574.479	5.02
574.819	5.02
575.158	5.03
575.498	5.03
575.838	5.03
576.177	5.03
576.517	5.03
576.856	5.02
577.196	5.01
577.535	5.01
577.875	5.01
578.214	5.01
578.553	5.01
578.893	5
579.232	5
579.571	5
579.91	4.99
580.25	4.99
580.589	4.98
580.928	4.97
581.267	4.98
581.606	4.97
581.945	4.97
582.283	4.97
582.622	4.96
582.961	4.96
583.3	4.97
583.639	4.97
583.977	4.98
584.316	4.98
584.654	4.97
584.993	4.98
585.332	4.99
585.67	4.98
586.008	4.99
586.347	4.99
586.685	5
587.024	5.01
587.362	5.02
587.7	5.04
588.038	5.04
588.376	5.04
588.715	5.05
589.053	5.05
589.391	5.06
589.729	5.05
590.067	5.05
590.404	5.05
590.742	5.05
591.08	5.05
591.418	5.06
591.756	5.06
592.093	5.07
592.431	5.07
592.769	5.08
593.106	5.08
593.444	5.07
593.781	5.07
594.119	5.06
594.456	5.06
594.793	5.06
595.131	5.07
595.468	5.07
595.805	5.06
596.143	5.08
596.48	5.08
596.817	5.09
597.154	5.09
597.491	5.1
597.828	5.1
598.165	5.1
598.502	5.09
598.839	5.1
599.176	5.09
599.512	5.09
599.849	5.09
600.186	5.1
600.523	5.1
600.859	5.11
601.196	5.11
601.532	5.11
601.869	5.12
602.205	5.14
602.542	5.15
602.878	5.16
603.215	5.15
603.551	5.15
603.887	5.16
604.223	5.17
604.56	5.16
604.896	5.16
605.232	5.17
605.568	5.17
605.904	5.17
606.24	5.18
606.576	5.19
606.912	5.19
607.248	5.19
607.583	5.19
607.919	5.19
608.255	5.2
608.591	5.21
608.926	5.19
609.262	5.18
609.597	5.17
609.933	5.18
610.268	5.19
610.604	5.18
610.939	5.18
611.275	5.17
611.61	5.17
611.945	5.17
612.281	5.16
612.616	5.16
612.951	5.16
613.286	5.17
613.621	5.16
613.956	5.15
614.291	5.16
614.626	5.16
614.961	5.17
615.296	5.17
615.631	5.15
615.966	5.15
616.3	5.16
616.635	5.16
616.97	5.12
617.304	5.12
617.639	5.13
617.973	5.13
618.308	5.14
618.642	5.14
618.977	5.14
619.311	5.13
619.646	5.12
619.98	5.14
620.314	5.12
620.648	5.13
620.983	5.13
621.317	5.12
621.651	5.13
621.985	5.14
622.319	5.14
622.653	5.14
622.987	5.14
623.321	5.16
623.655	5.17
623.988	5.21
624.322	5.22
624.656	5.23
624.99	5.22
625.323	5.23
625.657	5.23
625.99	5.24
626.324	5.25
626.657	5.27
626.991	5.27
627.324	5.27
627.658	5.26
627.991	5.26
628.324	5.26
628.657	5.25
628.991	5.26
629.324	5.26
629.657	5.27
629.99	5.27
630.323	5.26
630.656	5.25
630.989	5.26
631.322	5.26
631.655	5.25
631.987	5.25
632.32	5.25
632.653	5.26
632.986	5.25
633.318	5.25
633.651	5.24
633.984	5.24
634.316	5.25
634.649	5.25
634.981	5.26
635.313	5.27
635.646	5.27
635.978	5.27
636.31	5.28
636.643	5.29
636.975	5.29
637.307	5.29
637.639	5.3
637.971	5.29
638.303	5.28
638.635	5.27
638.967	5.29
639.299	5.28
639.631	5.27
639.963	5.27
640.295	5.26
640.626	5.29
640.958	5.28
641.29	5.28
641.621	5.29
641.953	5.31
642.285	5.33
642.616	5.34
642.948	5.35
643.279	5.34
643.61	5.35
643.942	5.35
644.273	5.35
644.604	5.34
644.936	5.35
645.267	5.36
645.598	5.38
645.929	5.39
646.26	5.4
646.591	5.41
646.922	5.42
647.253	5.42
647.584	5.41
647.915	5.42
648.245	5.43
648.576	5.43
648.907	5.42
649.238	5.4
649.568	5.39
649.899	5.37
650.229	5.38
650.56	5.39
650.89	5.39
651.221	5.41
651.551	5.42
651.882	5.43
652.212	5.43
652.542	5.41
652.872	5.43
653.203	5.44
653.533	5.44
653.863	5.44
654.193	5.44
654.523	5.45
654.853	5.45
655.183	5.46
655.513	5.46
655.843	5.47
656.172	5.48
656.502	5.5
656.832	5.52
657.162	5.55
657.491	5.54
657.821	5.53
658.15	5.5
658.48	5.52
658.809	5.52
659.139	5.52
659.468	5.55
659.798	5.54
660.127	5.55
660.456	5.55
660.785	5.56
661.115	5.58
661.444	5.58
661.773	5.59
662.102	5.58
662.431	5.59
662.76	5.6
663.089	5.6
663.418	5.6
663.747	5.55
664.076	5.53
664.404	5.54
664.733	5.56
665.062	5.59
665.39	5.58
665.719	5.57
666.048	5.6
666.376	5.6
666.705	5.59
667.033	5.58
667.362	5.6
667.69	5.6
668.018	5.59
668.347	5.59
668.675	5.58
669.003	5.59
669.331	5.59
669.659	5.57
669.987	5.58
670.315	5.57
670.643	5.6
670.971	5.6
671.299	5.6
671.627	5.6
671.955	5.59
672.283	5.6
672.61	5.61
672.938	5.6
673.266	5.59
673.593	5.59
673.921	5.58
674.249	5.59
674.576	5.6
674.904	5.63
675.231	5.63
675.558	5.65
675.886	5.68
676.213	5.68
676.54	5.7
676.867	5.72
677.195	5.77
677.522	5.79
677.849	5.83
678.176	5.85
678.503	5.85
678.83	5.86
679.157	5.87
679.484	5.87
679.81	5.87
680.137	5.89
680.464	5.91
680.791	5.93
681.117	5.91
681.444	5.92
681.771	5.92
682.097	5.94
682.424	5.94
682.75	5.92
