Data from UWBM122453_Reflection_00009.txt Node
Date: Sun May 02 12:40:59 EDT 2021
User: vgr7
Spectrometer: USB2G7710
Scans to average: 10
Trigger mode: 4
Integration Time (sec): 1.000000E-1
Electric dark correction enabled: true
Boxcar width: 20
XAxis mode: Wavelengths
Number of Pixels in Spectrum: 2048
>>>>>Begin Spectral Data<<<<<
177.721	99.59
178.105	100.36
178.488	100.49
178.871	100.21
179.254	99.88
179.636	97.79
180.019	93.98
180.402	90.58
180.785	88.61
181.168	86.72
181.55	84.18
181.933	114.33
182.316	116
182.698	116.7
183.081	117.45
183.463	118.3
183.846	120.69
184.228	122.37
184.611	124.08
184.993	129.02
185.376	132.41
185.758	-101.98
186.14	-53.4
186.522	-20.29
186.904	-2.72
187.287	7.24
187.669	11.04
188.051	11.65
188.433	13.18
188.815	10.26
189.197	11.11
189.579	14.27
189.961	13.82
190.342	9.79
190.724	15.43
191.106	12.15
191.488	10.73
191.869	3.58
192.251	5.16
192.633	2.5
193.014	-1.98
193.396	-2.12
193.777	5.57
194.159	5.67
194.54	4.54
194.922	4.23
195.303	6.6
195.684	8.13
196.065	9.68
196.447	6.67
196.828	6.4
197.209	8.64
197.59	-1.54
197.971	-3.49
198.352	-2.76
198.733	1.08
199.114	0.05
199.495	-0.52
199.876	-0.13
200.257	-2.27
200.638	-1.96
201.018	-6.85
201.399	-8.81
201.78	-11.28
202.16	-10.67
202.541	-9.92
202.922	-9.43
203.302	-12.64
203.683	-10.73
204.063	-9.36
204.444	-7.27
204.824	-4.14
205.204	-3.28
205.585	6.24
205.965	6.83
206.345	7.14
206.725	3.54
207.106	4.92
207.486	5.66
207.866	4.88
208.246	5.08
208.626	8.01
209.006	12.88
209.386	9
209.766	8.72
210.145	7.39
210.525	6.34
210.905	6.76
211.285	6.69
211.664	4.86
212.044	5.95
212.424	5.29
212.803	-0.02
213.183	3
213.562	3.39
213.942	3.29
214.321	0.88
214.701	0.5
215.08	2.68
215.459	3.07
215.838	3.29
216.218	2.99
216.597	2.1
216.976	-1.22
217.355	-0.62
217.734	-0.02
218.113	-0.53
218.492	1.2
218.871	2.36
219.25	3.06
219.629	1.67
220.008	0.41
220.387	0.68
220.766	1.42
221.144	-0.01
221.523	1.93
221.902	2.36
222.28	3.49
222.659	4.28
223.037	4.13
223.416	5.17
223.794	5.74
224.173	5.58
224.551	5.49
224.929	6.03
225.308	6.73
225.686	6.29
226.064	6.78
226.442	6.78
226.821	6.72
227.199	6.43
227.577	5.77
227.955	5.19
228.333	5.42
228.711	5.15
229.089	5.54
229.467	5.12
229.845	6.05
230.222	5.97
230.6	6.25
230.978	6.21
231.356	5.57
231.733	5.29
232.111	5.25
232.488	5.47
232.866	5.6
233.243	5.09
233.621	5.37
233.998	5.32
234.376	5.48
234.753	5.56
235.13	5.61
235.508	6.11
235.885	6
236.262	5.95
236.639	6.05
237.016	5.93
237.393	5.87
237.77	5.56
238.147	5.48
238.524	5.51
238.901	5.56
239.278	5.62
239.655	5.55
240.032	5.53
240.409	5.51
240.785	5.49
241.162	5.62
241.539	5.57
241.915	5.64
242.292	5.62
242.668	5.6
243.045	5.58
243.421	5.49
243.798	5.43
244.174	5.43
244.551	5.38
244.927	5.17
245.303	5.08
245.679	5.09
246.056	5.02
246.432	4.96
246.808	4.74
247.184	4.76
247.56	4.74
247.936	4.74
248.312	4.73
248.688	4.79
249.064	4.72
249.44	4.66
249.815	4.64
250.191	4.57
250.567	4.56
250.943	4.64
251.318	4.66
251.694	4.62
252.069	4.56
252.445	4.56
252.82	4.64
253.196	4.7
253.571	4.66
253.947	4.75
254.322	4.71
254.697	4.83
255.073	4.83
255.448	4.8
255.823	4.76
256.198	4.71
256.573	4.54
256.948	4.52
257.323	4.5
257.698	4.46
258.073	4.45
258.448	4.34
258.823	4.32
259.198	4.32
259.573	4.33
259.948	4.35
260.322	4.33
260.697	4.34
261.072	4.35
261.446	4.33
261.821	4.33
262.195	4.31
262.57	4.27
262.944	4.27
263.319	4.25
263.693	4.27
264.067	4.27
264.442	4.36
264.816	4.34
265.19	4.33
265.564	4.37
265.938	4.35
266.313	4.41
266.687	4.36
267.061	4.35
267.435	4.34
267.809	4.31
268.183	4.29
268.556	4.27
268.93	4.27
269.304	4.25
269.678	4.21
270.051	4.2
270.425	4.19
270.799	4.2
271.172	4.21
271.546	4.22
271.919	4.22
272.293	4.2
272.666	4.21
273.04	4.21
273.413	4.15
273.787	4.14
274.16	4.14
274.533	4.16
274.906	4.15
275.279	4.17
275.653	4.16
276.026	4.15
276.399	4.11
276.772	4.11
277.145	4.14
277.518	4.16
277.891	4.19
278.263	4.19
278.636	4.19
279.009	4.2
279.382	4.19
279.755	4.14
280.127	4.18
280.5	4.17
280.872	4.16
281.245	4.26
281.617	4.26
281.99	4.29
282.362	4.32
282.735	4.31
283.107	4.31
283.479	4.34
283.852	4.36
284.224	4.41
284.596	4.41
284.968	4.31
285.34	4.31
285.713	4.29
286.085	4.23
286.457	4.24
286.829	4.24
287.201	4.25
287.572	4.3
287.944	4.33
288.316	4.38
288.688	4.42
289.06	4.43
289.431	4.45
289.803	4.46
290.175	4.49
290.546	4.53
290.918	4.56
291.289	4.55
291.661	4.59
292.032	4.57
292.403	4.59
292.775	4.7
293.146	4.71
293.517	4.76
293.889	4.86
294.26	4.89
294.631	4.93
295.002	5.01
295.373	5.06
295.744	5.08
296.115	5.1
296.486	5.07
296.857	5.1
297.228	5.12
297.599	5.15
297.97	5.18
298.34	5.21
298.711	5.2
299.082	5.23
299.452	5.28
299.823	5.33
300.194	5.38
300.564	5.41
300.935	5.45
301.305	5.48
301.676	5.49
302.046	5.53
302.416	5.58
302.787	5.62
303.157	5.58
303.527	5.63
303.897	5.68
304.267	5.73
304.637	5.77
305.008	5.85
305.378	5.9
305.748	5.94
306.117	6.04
306.487	6.14
306.857	6.24
307.227	6.28
307.597	6.32
307.967	6.37
308.336	6.42
308.706	6.48
309.076	6.52
309.445	6.54
309.815	6.48
310.184	6.51
310.554	6.5
310.923	6.58
311.293	6.64
311.662	6.69
312.031	6.71
312.401	6.75
312.77	6.77
313.139	6.79
313.508	6.86
313.877	6.85
314.246	6.87
314.616	6.88
314.985	6.86
315.353	6.89
315.722	6.9
316.091	6.94
316.46	6.99
316.829	7.06
317.198	7.1
317.567	7.25
317.935	7.29
318.304	7.39
318.672	7.44
319.041	7.49
319.41	7.56
319.778	7.63
320.147	7.68
320.515	7.72
320.883	7.75
321.252	7.72
321.62	7.79
321.988	7.81
322.357	7.85
322.725	7.94
323.093	7.97
323.461	8
323.829	8.03
324.197	8.04
324.565	8.05
324.933	8.09
325.301	8.1
325.669	8.14
326.037	8.15
326.405	8.14
326.772	8.16
327.14	8.19
327.508	8.2
327.875	8.21
328.243	8.25
328.61	8.23
328.978	8.25
329.346	8.28
329.713	8.28
330.08	8.3
330.448	8.31
330.815	8.32
331.182	8.35
331.55	8.37
331.917	8.38
332.284	8.4
332.651	8.44
333.018	8.47
333.385	8.49
333.752	8.53
334.119	8.56
334.486	8.59
334.853	8.59
335.22	8.61
335.587	8.63
335.954	8.66
336.32	8.7
336.687	8.73
337.054	8.76
337.42	8.8
337.787	8.82
338.153	8.86
338.52	8.92
338.886	8.97
339.253	8.98
339.619	9
339.986	8.99
340.352	9
340.718	9.02
341.084	9.04
341.451	9.05
341.817	9.05
342.183	9.05
342.549	9.1
342.915	9.12
343.281	9.15
343.647	9.17
344.013	9.21
344.379	9.23
344.745	9.24
345.11	9.26
345.476	9.29
345.842	9.32
346.208	9.31
346.573	9.32
346.939	9.36
347.304	9.35
347.67	9.36
348.035	9.38
348.401	9.38
348.766	9.41
349.132	9.43
349.497	9.44
349.862	9.46
350.228	9.47
350.593	9.49
350.958	9.48
351.323	9.47
351.688	9.47
352.053	9.47
352.418	9.46
352.783	9.46
353.148	9.45
353.513	9.44
353.878	9.45
354.243	9.46
354.608	9.46
354.972	9.47
355.337	9.47
355.702	9.45
356.066	9.46
356.431	9.44
356.795	9.44
357.16	9.42
357.524	9.41
357.889	9.4
358.253	9.4
358.618	9.39
358.982	9.4
359.346	9.4
359.71	9.4
360.075	9.4
360.439	9.4
360.803	9.38
361.167	9.37
361.531	9.38
361.895	9.37
362.259	9.37
362.623	9.35
362.987	9.34
363.351	9.34
363.714	9.32
364.078	9.3
364.442	9.29
364.806	9.28
365.169	9.25
365.533	9.22
365.896	9.19
366.26	9.17
366.623	9.14
366.987	9.12
367.35	9.11
367.714	9.09
368.077	9.07
368.44	9.05
368.803	9.01
369.167	8.98
369.53	8.94
369.893	8.91
370.256	8.88
370.619	8.84
370.982	8.8
371.345	8.75
371.708	8.71
372.071	8.67
372.434	8.64
372.797	8.62
373.159	8.59
373.522	8.55
373.885	8.5
374.247	8.45
374.61	8.41
374.973	8.35
375.335	8.3
375.698	8.26
376.06	8.22
376.423	8.17
376.785	8.13
377.147	8.07
377.51	8.04
377.872	7.99
378.234	7.94
378.596	7.91
378.958	7.88
379.321	7.84
379.683	7.81
380.045	7.76
380.407	7.71
380.769	7.67
381.13	7.64
381.492	7.61
381.854	7.56
382.216	7.52
382.578	7.47
382.939	7.44
383.301	7.4
383.663	7.36
384.024	7.32
384.386	7.29
384.747	7.25
385.109	7.21
385.47	7.17
385.832	7.14
386.193	7.1
386.554	7.05
386.916	7.01
387.277	6.97
387.638	6.94
387.999	6.91
388.36	6.87
388.721	6.84
389.082	6.8
389.443	6.76
389.804	6.73
390.165	6.7
390.526	6.66
390.887	6.62
391.248	6.58
391.609	6.55
391.969	6.52
392.33	6.49
392.691	6.45
393.051	6.42
393.412	6.37
393.772	6.34
394.133	6.3
394.493	6.26
394.854	6.22
395.214	6.18
395.574	6.14
395.935	6.1
396.295	6.06
396.655	6.03
397.015	5.99
397.376	5.95
397.736	5.92
398.096	5.87
398.456	5.84
398.816	5.82
399.176	5.77
399.535	5.74
399.895	5.71
400.255	5.68
400.615	5.65
400.975	5.62
401.334	5.59
401.694	5.56
402.054	5.54
402.413	5.49
402.773	5.46
403.132	5.44
403.492	5.42
403.851	5.39
404.211	5.37
404.57	5.36
404.929	5.35
405.288	5.32
405.648	5.31
406.007	5.3
406.366	5.28
406.725	5.27
407.084	5.25
407.443	5.23
407.802	5.21
408.161	5.19
408.52	5.18
408.879	5.17
409.238	5.15
409.596	5.13
409.955	5.13
410.314	5.12
410.673	5.1
411.031	5.09
411.39	5.08
411.748	5.08
412.107	5.07
412.465	5.06
412.824	5.07
413.182	5.07
413.54	5.08
413.899	5.09
414.257	5.1
414.615	5.13
414.974	5.14
415.332	5.17
415.69	5.2
416.048	5.22
416.406	5.25
416.764	5.27
417.122	5.28
417.48	5.31
417.838	5.32
418.195	5.34
418.553	5.35
418.911	5.35
419.269	5.34
419.626	5.32
419.984	5.3
420.342	5.27
420.699	5.24
421.057	5.2
421.414	5.17
421.772	5.15
422.129	5.13
422.486	5.11
422.844	5.1
423.201	5.09
423.558	5.08
423.915	5.06
424.273	5.05
424.63	5.04
424.987	5.03
425.344	5.02
425.701	5.01
426.058	5
426.415	4.99
426.772	4.98
427.128	4.96
427.485	4.94
427.842	4.92
428.199	4.9
428.555	4.88
428.912	4.85
429.269	4.81
429.625	4.79
429.982	4.76
430.338	4.72
430.695	4.69
431.051	4.65
431.407	4.62
431.764	4.6
432.12	4.57
432.476	4.56
432.832	4.55
433.189	4.55
433.545	4.55
433.901	4.57
434.257	4.59
434.613	4.61
434.969	4.64
435.325	4.67
435.681	4.71
436.036	4.73
436.392	4.75
436.748	4.76
437.104	4.76
437.459	4.78
437.815	4.79
438.171	4.82
438.526	4.84
438.882	4.87
439.237	4.9
439.593	4.94
439.948	4.97
440.304	5
440.659	5.02
441.014	5.04
441.369	5.06
441.725	5.07
442.08	5.09
442.435	5.1
442.79	5.1
443.145	5.1
443.5	5.1
443.855	5.09
444.21	5.08
444.565	5.07
444.92	5.06
445.275	5.04
445.629	5.03
445.984	5.02
446.339	5
446.693	4.99
447.048	4.96
447.403	4.94
447.757	4.91
448.112	4.88
448.466	4.85
448.82	4.82
449.175	4.8
449.529	4.77
449.883	4.75
450.238	4.72
450.592	4.71
450.946	4.7
451.3	4.7
451.654	4.71
452.008	4.71
452.362	4.71
452.716	4.71
453.07	4.71
453.424	4.7
453.778	4.7
454.132	4.67
454.486	4.66
454.839	4.64
455.193	4.62
455.547	4.61
455.9	4.57
456.254	4.55
456.607	4.52
456.961	4.5
457.314	4.48
457.668	4.48
458.021	4.47
458.375	4.47
458.728	4.48
459.081	4.49
459.434	4.5
459.787	4.51
460.141	4.53
460.494	4.54
460.847	4.56
461.2	4.57
461.553	4.59
461.906	4.6
462.259	4.62
462.611	4.63
462.964	4.65
463.317	4.66
463.67	4.67
464.022	4.69
464.375	4.7
464.728	4.7
465.08	4.71
465.433	4.73
465.785	4.73
466.138	4.72
466.49	4.72
466.843	4.71
467.195	4.7
467.547	4.69
467.899	4.67
468.252	4.65
468.604	4.64
468.956	4.63
469.308	4.62
469.66	4.63
470.012	4.63
470.364	4.64
470.716	4.66
471.068	4.68
471.42	4.71
471.772	4.74
472.123	4.75
472.475	4.77
472.827	4.79
473.178	4.8
473.53	4.81
473.882	4.82
474.233	4.85
474.585	4.89
474.936	4.95
475.288	5.05
475.639	5.17
475.99	5.32
476.342	5.48
476.693	5.65
477.044	5.83
477.395	6.01
477.746	6.19
478.097	6.38
478.448	6.56
478.8	6.75
479.15	6.92
479.501	7.07
479.852	7.21
480.203	7.34
480.554	7.46
480.905	7.59
481.255	7.7
481.606	7.81
481.957	7.91
482.307	8.01
482.658	8.11
483.009	8.2
483.359	8.29
483.709	8.37
484.06	8.45
484.41	8.54
484.761	8.62
485.111	8.69
485.461	8.77
485.811	8.84
486.162	8.9
486.512	8.96
486.862	9
487.212	9.04
487.562	9.07
487.912	9.09
488.262	9.1
488.612	9.1
488.961	9.09
489.311	9.06
489.661	8.99
490.011	8.91
490.36	8.8
490.71	8.68
491.06	8.54
491.409	8.4
491.759	8.26
492.108	8.12
492.458	7.97
492.807	7.81
493.157	7.65
493.506	7.5
493.855	7.36
494.204	7.24
494.554	7.13
494.903	7.03
495.252	6.93
495.601	6.84
495.95	6.76
496.299	6.69
496.648	6.63
496.997	6.58
497.346	6.53
497.695	6.49
498.043	6.46
498.392	6.44
498.741	6.41
499.09	6.39
499.438	6.39
499.787	6.39
500.135	6.4
500.484	6.43
500.832	6.47
501.181	6.53
501.529	6.6
501.878	6.7
502.226	6.8
502.574	6.92
502.923	7.05
503.271	7.18
503.619	7.32
503.967	7.47
504.315	7.61
504.663	7.76
505.011	7.91
505.359	8.06
505.707	8.23
506.055	8.39
506.403	8.56
506.751	8.75
507.098	8.93
507.446	9.12
507.794	9.32
508.141	9.53
508.489	9.75
508.837	9.98
509.184	10.2
509.531	10.43
509.879	10.68
510.226	10.94
510.574	11.2
510.921	11.47
511.268	11.75
511.616	12.04
511.963	12.34
512.31	12.64
512.657	12.93
513.004	13.22
513.351	13.51
513.698	13.77
514.045	14.02
514.392	14.26
514.739	14.49
515.086	14.71
515.432	14.94
515.779	15.17
516.126	15.4
516.473	15.66
516.819	15.92
517.166	16.2
517.512	16.5
517.859	16.82
518.205	17.16
518.552	17.53
518.898	17.93
519.245	18.38
519.591	18.92
519.937	19.55
520.283	20.28
520.629	21.07
520.976	21.89
521.322	22.73
521.668	23.59
522.014	24.44
522.36	25.29
522.706	26.13
523.052	26.95
523.398	27.72
523.743	28.43
524.089	29.08
524.435	29.69
524.781	30.28
525.126	30.86
525.472	31.43
525.817	31.99
526.163	32.53
526.509	33.07
526.854	33.6
527.199	34.12
527.545	34.65
527.89	35.19
528.235	35.72
528.581	36.23
528.926	36.7
529.271	37.15
529.616	37.57
529.961	37.95
530.306	38.3
530.651	38.64
530.996	38.95
531.341	39.23
531.686	39.5
532.031	39.74
532.376	40.01
532.721	40.31
533.065	40.65
533.41	40.98
533.755	41.27
534.099	41.49
534.444	41.68
534.788	41.83
535.133	41.97
535.477	42.07
535.822	42.13
536.166	42.14
536.51	42.09
536.855	41.98
537.199	41.83
537.543	41.69
537.887	41.58
538.231	41.52
538.576	41.46
538.92	41.38
539.264	41.29
539.608	41.18
539.951	41.04
540.295	40.89
540.639	40.73
540.983	40.55
541.327	40.36
541.671	40.17
542.014	40.01
542.358	39.86
542.701	39.83
543.045	39.85
543.389	39.91
543.732	39.98
544.075	40.08
544.419	40.2
544.762	40.31
545.105	40.46
545.449	40.61
545.792	40.78
546.135	40.95
546.478	41.06
546.821	41.11
547.165	41.09
547.508	40.99
547.851	40.85
548.194	40.66
548.536	40.41
548.879	40.12
549.222	39.8
549.565	39.49
549.908	39.17
550.25	38.89
550.593	38.67
550.936	38.53
551.278	38.45
551.621	38.42
551.963	38.41
552.306	38.42
552.648	38.48
552.991	38.57
553.333	38.67
553.675	38.82
554.017	39
554.36	39.21
554.702	39.45
555.044	39.73
555.386	40.06
555.728	40.38
556.07	40.67
556.412	40.95
556.754	41.12
557.096	41.28
557.438	41.45
557.78	41.61
558.121	41.77
558.463	41.93
558.805	42.09
559.147	42.25
559.488	42.42
559.83	42.58
560.171	42.73
560.513	42.88
560.854	43.02
561.196	43.17
561.537	43.31
561.878	43.45
562.22	43.59
562.561	43.72
562.902	43.86
563.243	44
563.584	44.12
563.925	44.26
564.266	44.4
564.607	44.52
564.948	44.65
565.289	44.77
565.63	44.9
565.971	45.03
566.312	45.16
566.653	45.27
566.993	45.38
567.334	45.5
567.675	45.61
568.015	45.72
568.356	45.83
568.696	45.93
569.037	46.02
569.377	46.11
569.718	46.21
570.058	46.28
570.398	46.36
570.739	46.44
571.079	46.51
571.419	46.59
571.759	46.66
572.099	46.72
572.439	46.77
572.779	46.85
573.119	46.9
573.459	46.95
573.799	47
574.139	47.06
574.479	47.12
574.819	47.18
575.158	47.22
575.498	47.28
575.838	47.33
576.177	47.38
576.517	47.44
576.856	47.48
577.196	47.53
577.535	47.59
577.875	47.64
578.214	47.68
578.553	47.72
578.893	47.76
579.232	47.81
579.571	47.84
579.91	47.87
580.25	47.92
580.589	47.95
580.928	47.98
581.267	48.02
581.606	48.05
581.945	48.09
582.283	48.14
582.622	48.19
582.961	48.24
583.3	48.29
583.639	48.34
583.977	48.4
584.316	48.47
584.654	48.52
584.993	48.58
585.332	48.63
585.67	48.68
586.008	48.73
586.347	48.79
586.685	48.82
587.024	48.88
587.362	48.94
587.7	48.99
588.038	49.05
588.376	49.11
588.715	49.17
589.053	49.24
589.391	49.31
589.729	49.37
590.067	49.43
590.404	49.5
590.742	49.56
591.08	49.61
591.418	49.65
591.756	49.69
592.093	49.75
592.431	49.81
592.769	49.84
593.106	49.87
593.444	49.92
593.781	49.95
594.119	49.98
594.456	50.02
594.793	50.06
595.131	50.1
595.468	50.15
595.805	50.19
596.143	50.24
596.48	50.29
596.817	50.33
597.154	50.37
597.491	50.42
597.828	50.47
598.165	50.53
598.502	50.56
598.839	50.6
599.176	50.63
599.512	50.66
599.849	50.7
600.186	50.75
600.523	50.79
600.859	50.82
601.196	50.85
601.532	50.88
601.869	50.92
602.205	50.94
602.542	50.96
602.878	50.98
603.215	51
603.551	51.02
603.887	51.03
604.223	51.06
604.56	51.08
604.896	51.11
605.232	51.13
605.568	51.15
605.904	51.17
606.24	51.18
606.576	51.2
606.912	51.23
607.248	51.24
607.583	51.26
607.919	51.28
608.255	51.3
608.591	51.32
608.926	51.33
609.262	51.34
609.597	51.34
609.933	51.35
610.268	51.37
610.604	51.38
610.939	51.39
611.275	51.39
611.61	51.39
611.945	51.39
612.281	51.4
612.616	51.41
612.951	51.42
613.286	51.44
613.621	51.44
613.956	51.44
614.291	51.45
614.626	51.46
614.961	51.48
615.296	51.48
615.631	51.49
615.966	51.5
616.3	51.52
616.635	51.52
616.97	51.54
617.304	51.54
617.639	51.56
617.973	51.56
618.308	51.58
618.642	51.58
618.977	51.6
619.311	51.61
619.646	51.64
619.98	51.69
620.314	51.7
620.648	51.72
620.983	51.74
621.317	51.76
621.651	51.79
621.985	51.8
622.319	51.81
622.653	51.83
622.987	51.85
623.321	51.87
623.655	51.88
623.988	51.89
624.322	51.92
624.656	51.93
624.99	51.94
625.323	51.95
625.657	51.96
625.99	51.98
626.324	51.99
626.657	52
626.991	52.01
627.324	52.03
627.658	52.05
627.991	52.06
628.324	52.07
628.657	52.09
628.991	52.11
629.324	52.13
629.657	52.15
629.99	52.16
630.323	52.18
630.656	52.19
630.989	52.2
631.322	52.22
631.655	52.23
631.987	52.24
632.32	52.26
632.653	52.28
632.986	52.3
633.318	52.3
633.651	52.3
633.984	52.33
634.316	52.36
634.649	52.37
634.981	52.39
635.313	52.4
635.646	52.41
635.978	52.43
636.31	52.43
636.643	52.46
636.975	52.46
637.307	52.48
637.639	52.51
637.971	52.52
638.303	52.55
638.635	52.55
638.967	52.58
639.299	52.59
639.631	52.61
639.963	52.63
640.295	52.64
640.626	52.67
640.958	52.69
641.29	52.71
641.621	52.72
641.953	52.74
642.285	52.76
642.616	52.77
642.948	52.79
643.279	52.82
643.61	52.84
643.942	52.84
644.273	52.86
644.604	52.86
644.936	52.87
645.267	52.87
645.598	52.89
645.929	52.89
646.26	52.89
646.591	52.9
646.922	52.92
647.253	52.94
647.584	52.93
647.915	52.94
648.245	52.96
648.576	52.97
648.907	52.98
649.238	52.99
649.568	52.99
649.899	53.02
650.229	53.02
650.56	53.04
650.89	53.06
651.221	53.07
651.551	53.09
651.882	53.1
652.212	53.11
652.542	53.11
652.872	53.13
653.203	53.16
653.533	53.18
653.863	53.19
654.193	53.19
654.523	53.19
654.853	53.19
655.183	53.21
655.513	53.22
655.843	53.24
656.172	53.25
656.502	53.24
656.832	53.23
657.162	53.24
657.491	53.25
657.821	53.27
658.15	53.28
658.48	53.29
658.809	53.31
659.139	53.33
659.468	53.34
659.798	53.36
660.127	53.38
660.456	53.41
660.785	53.41
661.115	53.44
661.444	53.47
661.773	53.48
662.102	53.48
662.431	53.5
662.76	53.51
663.089	53.52
663.418	53.52
663.747	53.52
664.076	53.52
664.404	53.54
664.733	53.56
665.062	53.57
665.39	53.59
665.719	53.6
666.048	53.59
666.376	53.6
666.705	53.58
667.033	53.58
667.362	53.6
667.69	53.62
668.018	53.64
668.347	53.67
668.675	53.67
669.003	53.68
669.331	53.69
669.659	53.69
669.987	53.71
670.315	53.72
670.643	53.72
