Data from UWBM53665_Reflection_00005.txt Node
Date: Sun May 02 13:12:29 EDT 2021
User: vgr7
Spectrometer: USB2G7710
Scans to average: 10
Trigger mode: 4
Integration Time (sec): 1.000000E-1
Electric dark correction enabled: true
Boxcar width: 20
XAxis mode: Wavelengths
Number of Pixels in Spectrum: 2048
>>>>>Begin Spectral Data<<<<<
177.721	99.03
178.105	99.2
178.488	99.47
178.871	98.94
179.254	97.4
179.636	94.49
180.019	90.84
180.402	89.85
180.785	85.1
181.168	81.92
181.55	77.72
181.933	121.32
182.316	122.76
182.698	123.07
183.081	124.6
183.463	125.53
183.846	126.67
184.228	127.09
184.611	128.9
184.993	132.96
185.376	135.21
185.758	-143.62
186.14	-76.35
186.522	-38.58
186.904	-19.72
187.287	-3.83
187.669	2.61
188.051	4.08
188.433	9.05
188.815	8.07
189.197	9.25
189.579	7.7
189.961	7.22
190.342	4.09
190.724	7.55
191.106	7.18
191.488	6.64
191.869	2.16
192.251	3.93
192.633	1.38
193.014	0.79
193.396	2.59
193.777	9.73
194.159	8.8
194.54	7.38
194.922	7.68
195.303	10.26
195.684	12.24
196.065	11.02
196.447	9.94
196.828	8.81
197.209	10.94
197.59	1.45
197.971	1.61
198.352	3.98
198.733	5.98
199.114	4.72
199.495	5.15
199.876	5.71
200.257	5.27
200.638	5.48
201.018	1.07
201.399	-0.54
201.78	-2.23
202.16	-2.63
202.541	-1.69
202.922	-1.34
203.302	-6.26
203.683	-6.02
204.063	-7.42
204.444	-6.12
204.824	-2.88
205.204	-0.47
205.585	8.48
205.965	7.8
206.345	7.75
206.725	2.07
207.106	3.51
207.486	3.1
207.866	4.01
208.246	5.13
208.626	7.78
209.006	11.99
209.386	7.23
209.766	8.44
210.145	7.11
210.525	6.73
210.905	7.44
211.285	8.38
211.664	7.46
212.044	9.39
212.424	10.52
212.803	4.55
213.183	6.81
213.562	6.96
213.942	5.48
214.321	1.73
214.701	1.57
215.08	3.39
215.459	2.99
215.838	1.85
216.218	1.61
216.597	0.07
216.976	-2.86
217.355	-2.39
217.734	-2.14
218.113	-1.77
218.492	-0.58
218.871	1.53
219.25	2.63
219.629	3.69
220.008	4.09
220.387	3.26
220.766	3.53
221.144	2.66
221.523	5.07
221.902	5.97
222.28	7.43
222.659	8.05
223.037	8.41
223.416	8.37
223.794	8.97
224.173	8.3
224.551	8.05
224.929	8.46
225.308	8.43
225.686	8.51
226.064	8.51
226.442	8.26
226.821	7.86
227.199	7.66
227.577	6.94
227.955	6.26
228.333	6.23
228.711	6.47
229.089	6.53
229.467	5.84
229.845	6.83
230.222	6.73
230.6	6.96
230.978	6.86
231.356	6.37
231.733	6.54
232.111	6.64
232.488	6.69
232.866	6.82
233.243	6.35
233.621	6.47
233.998	6.11
234.376	6.18
234.753	6.09
235.13	6.03
235.508	6.44
235.885	6.39
236.262	6.48
236.639	6.58
237.016	6.41
237.393	6.38
237.77	6.16
238.147	5.99
238.524	5.93
238.901	5.95
239.278	5.86
239.655	5.82
240.032	5.71
240.409	5.73
240.785	5.68
241.162	5.73
241.539	5.71
241.915	5.74
242.292	5.76
242.668	5.71
243.045	5.72
243.421	5.64
243.798	5.61
244.174	5.59
244.551	5.55
244.927	5.4
245.303	5.31
245.679	5.33
246.056	5.24
246.432	5.23
246.808	5.03
247.184	5
247.56	4.97
247.936	4.99
248.312	4.97
248.688	5.07
249.064	5
249.44	4.99
249.815	4.96
250.191	4.9
250.567	4.86
250.943	4.91
251.318	4.94
251.694	4.83
252.069	4.74
252.445	4.75
252.82	4.84
253.196	4.85
253.571	4.84
253.947	4.93
254.322	4.89
254.697	5.03
255.073	5.02
255.448	5.02
255.823	4.97
256.198	4.92
256.573	4.75
256.948	4.73
257.323	4.73
257.698	4.65
258.073	4.65
258.448	4.51
258.823	4.48
259.198	4.47
259.573	4.47
259.948	4.51
260.322	4.48
260.697	4.49
261.072	4.47
261.446	4.46
261.821	4.44
262.195	4.4
262.57	4.37
262.944	4.38
263.319	4.36
263.693	4.38
264.067	4.39
264.442	4.48
264.816	4.47
265.19	4.44
265.564	4.51
265.938	4.48
266.313	4.53
266.687	4.49
267.061	4.5
267.435	4.49
267.809	4.48
268.183	4.45
268.556	4.46
268.93	4.45
269.304	4.42
269.678	4.38
270.051	4.37
270.425	4.36
270.799	4.37
271.172	4.38
271.546	4.38
271.919	4.39
272.293	4.36
272.666	4.36
273.04	4.37
273.413	4.32
273.787	4.31
274.16	4.33
274.533	4.36
274.906	4.35
275.279	4.36
275.653	4.33
276.026	4.32
276.399	4.3
276.772	4.29
277.145	4.31
277.518	4.33
277.891	4.35
278.263	4.36
278.636	4.36
279.009	4.37
279.382	4.33
279.755	4.29
280.127	4.31
280.5	4.32
280.872	4.29
281.245	4.4
281.617	4.4
281.99	4.41
282.362	4.44
282.735	4.43
283.107	4.41
283.479	4.43
283.852	4.44
284.224	4.45
284.596	4.43
284.968	4.32
285.34	4.3
285.713	4.29
286.085	4.21
286.457	4.22
286.829	4.19
287.201	4.18
287.572	4.24
287.944	4.22
288.316	4.24
288.688	4.28
289.06	4.26
289.431	4.26
289.803	4.25
290.175	4.25
290.546	4.27
290.918	4.28
291.289	4.25
291.661	4.26
292.032	4.22
292.403	4.24
292.775	4.32
293.146	4.32
293.517	4.33
293.889	4.39
294.26	4.37
294.631	4.4
295.002	4.43
295.373	4.45
295.744	4.44
296.115	4.44
296.486	4.36
296.857	4.35
297.228	4.34
297.599	4.32
297.97	4.3
298.34	4.32
298.711	4.25
299.082	4.25
299.452	4.27
299.823	4.3
300.194	4.32
300.564	4.31
300.935	4.3
301.305	4.28
301.676	4.25
302.046	4.25
302.416	4.25
302.787	4.25
303.157	4.18
303.527	4.19
303.897	4.16
304.267	4.18
304.637	4.18
305.008	4.18
305.378	4.18
305.748	4.16
306.117	4.21
306.487	4.26
306.857	4.29
307.227	4.28
307.597	4.27
307.967	4.25
308.336	4.25
308.706	4.26
309.076	4.25
309.445	4.24
309.815	4.11
310.184	4.1
310.554	4.03
310.923	4.06
311.293	4.06
311.662	4.06
312.031	4.05
312.401	4.05
312.77	4.02
313.139	4.02
313.508	4.03
313.877	3.98
314.246	3.96
314.616	3.93
314.985	3.88
315.353	3.87
315.722	3.86
316.091	3.85
316.46	3.86
316.829	3.88
317.198	3.9
317.567	4.02
317.935	4.02
318.304	4.06
318.672	4.08
319.041	4.08
319.41	4.06
319.778	4.08
320.147	4.1
320.515	4.09
320.883	4.07
321.252	4.02
321.62	4.04
321.988	4.02
322.357	4.03
322.725	4.08
323.093	4.08
323.461	4.07
323.829	4.08
324.197	4.06
324.565	4.04
324.933	4.05
325.301	4.03
325.669	4.03
326.037	4.02
326.405	3.98
326.772	3.96
327.14	3.96
327.508	3.94
327.875	3.94
328.243	3.94
328.61	3.89
328.978	3.9
329.346	3.9
329.713	3.86
330.08	3.85
330.448	3.85
330.815	3.82
331.182	3.83
331.55	3.8
331.917	3.82
332.284	3.8
332.651	3.81
333.018	3.79
333.385	3.8
333.752	3.8
334.119	3.81
334.486	3.82
334.853	3.78
335.22	3.78
335.587	3.77
335.954	3.77
336.32	3.78
336.687	3.78
337.054	3.77
337.42	3.79
337.787	3.79
338.153	3.8
338.52	3.84
338.886	3.85
339.253	3.85
339.619	3.83
339.986	3.8
340.352	3.79
340.718	3.79
341.084	3.79
341.451	3.78
341.817	3.77
342.183	3.74
342.549	3.77
342.915	3.77
343.281	3.79
343.647	3.78
344.013	3.8
344.379	3.81
344.745	3.81
345.11	3.8
345.476	3.82
345.842	3.83
346.208	3.8
346.573	3.8
346.939	3.8
347.304	3.8
347.67	3.81
348.035	3.81
348.401	3.79
348.766	3.8
349.132	3.8
349.497	3.82
349.862	3.83
350.228	3.84
350.593	3.84
350.958	3.84
351.323	3.82
351.688	3.83
352.053	3.82
352.418	3.82
352.783	3.81
353.148	3.79
353.513	3.77
353.878	3.78
354.243	3.78
354.608	3.77
354.972	3.79
355.337	3.78
355.702	3.76
356.066	3.77
356.431	3.77
356.795	3.77
357.16	3.75
357.524	3.74
357.889	3.73
358.253	3.73
358.618	3.74
358.982	3.74
359.346	3.75
359.71	3.74
360.075	3.74
360.439	3.74
360.803	3.72
361.167	3.72
361.531	3.73
361.895	3.73
362.259	3.72
362.623	3.72
362.987	3.71
363.351	3.72
363.714	3.72
364.078	3.71
364.442	3.72
364.806	3.72
365.169	3.71
365.533	3.7
365.896	3.69
366.26	3.69
366.623	3.68
366.987	3.68
367.35	3.68
367.714	3.69
368.077	3.7
368.44	3.7
368.803	3.7
369.167	3.69
369.53	3.7
369.893	3.7
370.256	3.71
370.619	3.72
370.982	3.71
371.345	3.7
371.708	3.71
372.071	3.72
372.434	3.71
372.797	3.73
373.159	3.74
373.522	3.74
373.885	3.73
374.247	3.71
374.61	3.71
374.973	3.7
375.335	3.69
375.698	3.69
376.06	3.69
376.423	3.68
376.785	3.68
377.147	3.67
377.51	3.68
377.872	3.68
378.234	3.68
378.596	3.68
378.958	3.7
379.321	3.69
379.683	3.69
380.045	3.68
380.407	3.68
380.769	3.67
381.13	3.68
381.492	3.69
381.854	3.69
382.216	3.69
382.578	3.69
382.939	3.69
383.301	3.68
383.663	3.68
384.024	3.67
384.386	3.67
384.747	3.66
385.109	3.65
385.47	3.65
385.832	3.65
386.193	3.64
386.554	3.64
386.916	3.64
387.277	3.64
387.638	3.64
387.999	3.65
388.36	3.65
388.721	3.65
389.082	3.65
389.443	3.66
389.804	3.66
390.165	3.66
390.526	3.66
390.887	3.66
391.248	3.65
391.609	3.66
391.969	3.66
392.33	3.66
392.691	3.66
393.051	3.66
393.412	3.65
393.772	3.66
394.133	3.66
394.493	3.65
394.854	3.66
395.214	3.65
395.574	3.64
395.935	3.64
396.295	3.63
396.655	3.63
397.015	3.63
397.376	3.62
397.736	3.62
398.096	3.62
398.456	3.62
398.816	3.64
399.176	3.63
399.535	3.63
399.895	3.63
400.255	3.64
400.615	3.64
400.975	3.64
401.334	3.64
401.694	3.64
402.054	3.64
402.413	3.62
402.773	3.62
403.132	3.63
403.492	3.63
403.851	3.62
404.211	3.63
404.57	3.64
404.929	3.65
405.288	3.65
405.648	3.66
406.007	3.66
406.366	3.67
406.725	3.67
407.084	3.67
407.443	3.68
407.802	3.67
408.161	3.66
408.52	3.66
408.879	3.66
409.238	3.66
409.596	3.66
409.955	3.68
410.314	3.68
410.673	3.68
411.031	3.69
411.39	3.7
411.748	3.71
412.107	3.71
412.465	3.72
412.824	3.75
413.182	3.77
413.54	3.79
413.899	3.81
414.257	3.84
414.615	3.88
414.974	3.91
415.332	3.95
415.69	3.99
416.048	4.01
416.406	4.05
416.764	4.08
417.122	4.12
417.48	4.15
417.838	4.18
418.195	4.2
418.553	4.23
418.911	4.24
419.269	4.24
419.626	4.24
419.984	4.24
420.342	4.22
420.699	4.21
421.057	4.2
421.414	4.18
421.772	4.17
422.129	4.16
422.486	4.16
422.844	4.16
423.201	4.16
423.558	4.16
423.915	4.15
424.273	4.16
424.63	4.15
424.987	4.15
425.344	4.15
425.701	4.15
426.058	4.16
426.415	4.15
426.772	4.15
427.128	4.15
427.485	4.14
427.842	4.13
428.199	4.12
428.555	4.11
428.912	4.09
429.269	4.06
429.625	4.05
429.982	4.02
430.338	4
430.695	3.98
431.051	3.95
431.407	3.93
431.764	3.91
432.12	3.89
432.476	3.88
432.832	3.88
433.189	3.88
433.545	3.88
433.901	3.9
434.257	3.92
434.613	3.94
434.969	3.97
435.325	3.99
435.681	4.03
436.036	4.05
436.392	4.07
436.748	4.08
437.104	4.08
437.459	4.1
437.815	4.12
438.171	4.14
438.526	4.16
438.882	4.19
439.237	4.22
439.593	4.25
439.948	4.28
440.304	4.31
440.659	4.34
441.014	4.36
441.369	4.39
441.725	4.4
442.08	4.42
442.435	4.43
442.79	4.44
443.145	4.44
443.5	4.45
443.855	4.45
444.21	4.45
444.565	4.45
444.92	4.44
445.275	4.43
445.629	4.42
445.984	4.41
446.339	4.4
446.693	4.4
447.048	4.38
447.403	4.37
447.757	4.35
448.112	4.33
448.466	4.31
448.82	4.29
449.175	4.27
449.529	4.25
449.883	4.23
450.238	4.21
450.592	4.2
450.946	4.2
451.3	4.2
451.654	4.21
452.008	4.21
452.362	4.21
452.716	4.22
453.07	4.22
453.424	4.22
453.778	4.21
454.132	4.2
454.486	4.19
454.839	4.18
455.193	4.16
455.547	4.14
455.9	4.11
456.254	4.09
456.607	4.06
456.961	4.04
457.314	4.02
457.668	4.01
458.021	4.01
458.375	4
458.728	4
459.081	4
459.434	4
459.787	4.01
460.141	4.02
460.494	4.03
460.847	4.04
461.2	4.04
461.553	4.05
461.906	4.05
462.259	4.06
462.611	4.06
462.964	4.07
463.317	4.07
463.67	4.08
464.022	4.08
464.375	4.08
464.728	4.08
465.08	4.08
465.433	4.09
465.785	4.08
466.138	4.06
466.49	4.05
466.843	4.03
467.195	4.01
467.547	3.99
467.899	3.96
468.252	3.93
468.604	3.91
468.956	3.89
469.308	3.87
469.66	3.87
470.012	3.86
470.364	3.86
470.716	3.86
471.068	3.88
471.42	3.9
471.772	3.91
472.123	3.93
472.475	3.94
472.827	3.94
473.178	3.95
473.53	3.97
473.882	3.98
474.233	4
474.585	4.04
474.936	4.09
475.288	4.17
475.639	4.28
475.99	4.41
476.342	4.55
476.693	4.71
477.044	4.86
477.395	5.02
477.746	5.19
478.097	5.36
478.448	5.53
478.8	5.69
479.15	5.85
479.501	5.98
479.852	6.11
480.203	6.23
480.554	6.35
480.905	6.46
481.255	6.57
481.606	6.68
481.957	6.77
482.307	6.86
482.658	6.95
483.009	7.03
483.359	7.12
483.709	7.19
484.06	7.26
484.41	7.34
484.761	7.41
485.111	7.48
485.461	7.55
485.811	7.61
486.162	7.67
486.512	7.71
486.862	7.75
487.212	7.78
487.562	7.8
487.912	7.82
488.262	7.82
488.612	7.82
488.961	7.79
489.311	7.76
489.661	7.69
490.011	7.61
490.36	7.51
490.71	7.38
491.06	7.25
491.409	7.11
491.759	6.97
492.108	6.82
492.458	6.67
492.807	6.51
493.157	6.35
493.506	6.2
493.855	6.05
494.204	5.91
494.554	5.78
494.903	5.66
495.252	5.55
495.601	5.43
495.95	5.32
496.299	5.22
496.648	5.12
496.997	5.02
497.346	4.94
497.695	4.85
498.043	4.77
498.392	4.7
498.741	4.62
499.09	4.54
499.438	4.47
499.787	4.4
500.135	4.34
500.484	4.28
500.832	4.24
501.181	4.2
501.529	4.17
501.878	4.15
502.226	4.14
502.574	4.14
502.923	4.14
503.271	4.14
503.619	4.14
503.967	4.14
504.315	4.14
504.663	4.13
505.011	4.13
505.359	4.12
505.707	4.12
506.055	4.11
506.403	4.12
506.751	4.12
507.098	4.12
507.446	4.12
507.794	4.13
508.141	4.13
508.489	4.15
508.837	4.17
509.184	4.18
509.531	4.19
509.879	4.2
510.226	4.22
510.574	4.23
510.921	4.25
511.268	4.27
511.616	4.28
511.963	4.31
512.31	4.33
512.657	4.35
513.004	4.37
513.351	4.39
513.698	4.39
514.045	4.4
514.392	4.41
514.739	4.41
515.086	4.41
515.432	4.41
515.779	4.4
516.126	4.4
516.473	4.4
516.819	4.4
517.166	4.41
517.512	4.42
517.859	4.43
518.205	4.45
518.552	4.47
518.898	4.51
519.245	4.55
519.591	4.6
519.937	4.67
520.283	4.76
520.629	4.86
520.976	4.97
521.322	5.08
521.668	5.2
522.014	5.31
522.36	5.42
522.706	5.54
523.052	5.65
523.398	5.75
523.743	5.84
524.089	5.92
524.435	5.99
524.781	6.05
525.126	6.1
525.472	6.16
525.817	6.21
526.163	6.26
526.509	6.31
526.854	6.35
527.199	6.39
527.545	6.44
527.89	6.49
528.235	6.54
528.581	6.58
528.926	6.62
529.271	6.67
529.616	6.7
529.961	6.74
530.306	6.76
530.651	6.8
530.996	6.82
531.341	6.83
531.686	6.83
532.031	6.83
532.376	6.83
532.721	6.83
533.065	6.83
533.41	6.83
533.755	6.83
534.099	6.79
534.444	6.76
534.788	6.73
535.133	6.69
535.477	6.65
535.822	6.6
536.166	6.54
536.51	6.48
536.855	6.4
537.199	6.32
537.543	6.24
537.887	6.17
538.231	6.11
538.576	6.05
538.92	6
539.264	5.95
539.608	5.89
539.951	5.84
540.295	5.78
540.639	5.71
540.983	5.65
541.327	5.61
541.671	5.54
542.014	5.48
542.358	5.42
542.701	5.37
543.045	5.34
543.389	5.32
543.732	5.29
544.075	5.27
544.419	5.26
544.762	5.22
545.105	5.21
545.449	5.2
545.792	5.2
546.135	5.19
546.478	5.18
546.821	5.15
547.165	5.12
547.508	5.08
547.851	5.03
548.194	4.98
548.536	4.91
548.879	4.85
549.222	4.78
549.565	4.7
549.908	4.63
550.25	4.57
550.593	4.51
550.936	4.47
551.278	4.43
551.621	4.4
551.963	4.37
552.306	4.36
552.648	4.34
552.991	4.31
553.333	4.3
553.675	4.28
554.017	4.28
554.36	4.28
554.702	4.29
555.044	4.29
555.386	4.29
555.728	4.31
556.07	4.31
556.412	4.32
556.754	4.33
557.096	4.33
557.438	4.34
557.78	4.33
558.121	4.33
558.463	4.33
558.805	4.33
559.147	4.33
559.488	4.33
559.83	4.34
560.171	4.34
560.513	4.34
560.854	4.33
561.196	4.33
561.537	4.33
561.878	4.34
562.22	4.34
562.561	4.33
562.902	4.34
563.243	4.35
563.584	4.35
563.925	4.35
564.266	4.35
564.607	4.35
564.948	4.36
565.289	4.36
565.63	4.36
565.971	4.36
566.312	4.36
566.653	4.37
566.993	4.36
567.334	4.36
567.675	4.37
568.015	4.38
568.356	4.38
568.696	4.39
569.037	4.39
569.377	4.39
569.718	4.39
570.058	4.39
570.398	4.39
570.739	4.39
571.079	4.39
571.419	4.39
571.759	4.39
572.099	4.38
572.439	4.38
572.779	4.39
573.119	4.39
573.459	4.38
573.799	4.37
574.139	4.38
574.479	4.38
574.819	4.38
575.158	4.38
575.498	4.38
575.838	4.37
576.177	4.37
576.517	4.37
576.856	4.37
577.196	4.37
577.535	4.36
577.875	4.37
578.214	4.36
578.553	4.36
578.893	4.36
579.232	4.35
579.571	4.35
579.91	4.35
580.25	4.34
580.589	4.34
580.928	4.33
581.267	4.33
581.606	4.32
581.945	4.32
582.283	4.31
582.622	4.31
582.961	4.32
583.3	4.32
583.639	4.32
583.977	4.32
584.316	4.32
584.654	4.32
584.993	4.32
585.332	4.31
585.67	4.31
586.008	4.31
586.347	4.31
586.685	4.32
587.024	4.32
587.362	4.32
587.7	4.32
588.038	4.33
588.376	4.32
588.715	4.32
589.053	4.32
589.391	4.33
589.729	4.32
590.067	4.32
590.404	4.32
590.742	4.32
591.08	4.32
591.418	4.33
591.756	4.33
592.093	4.34
592.431	4.35
592.769	4.35
593.106	4.36
593.444	4.35
593.781	4.35
594.119	4.35
594.456	4.35
594.793	4.35
595.131	4.35
595.468	4.36
595.805	4.35
596.143	4.36
596.48	4.35
596.817	4.36
597.154	4.36
597.491	4.37
597.828	4.37
598.165	4.38
598.502	4.38
598.839	4.37
599.176	4.37
599.512	4.38
599.849	4.38
600.186	4.39
600.523	4.39
600.859	4.39
601.196	4.39
601.532	4.39
601.869	4.4
602.205	4.4
602.542	4.4
602.878	4.41
603.215	4.4
603.551	4.39
603.887	4.39
604.223	4.39
604.56	4.4
604.896	4.39
605.232	4.39
605.568	4.39
605.904	4.39
606.24	4.39
606.576	4.39
606.912	4.4
607.248	4.4
607.583	4.4
607.919	4.4
608.255	4.4
608.591	4.4
608.926	4.4
609.262	4.4
609.597	4.41
609.933	4.41
610.268	4.42
610.604	4.42
610.939	4.42
611.275	4.41
611.61	4.42
611.945	4.41
612.281	4.41
612.616	4.41
612.951	4.39
613.286	4.39
613.621	4.38
613.956	4.38
614.291	4.38
614.626	4.38
614.961	4.39
615.296	4.39
615.631	4.39
615.966	4.38
616.3	4.39
616.635	4.38
616.97	4.37
617.304	4.37
617.639	4.37
617.973	4.37
618.308	4.37
618.642	4.37
618.977	4.36
619.311	4.36
619.646	4.37
619.98	4.38
620.314	4.38
620.648	4.38
620.983	4.37
621.317	4.37
621.651	4.38
621.985	4.37
622.319	4.37
622.653	4.37
622.987	4.37
623.321	4.37
623.655	4.37
623.988	4.37
624.322	4.37
624.656	4.37
624.99	4.37
625.323	4.38
625.657	4.37
625.99	4.39
626.324	4.4
626.657	4.4
626.991	4.4
627.324	4.4
627.658	4.4
627.991	4.4
628.324	4.41
628.657	4.41
628.991	4.41
629.324	4.41
629.657	4.42
629.99	4.42
630.323	4.43
630.656	4.44
630.989	4.44
631.322	4.45
631.655	4.44
631.987	4.44
632.32	4.45
632.653	4.45
632.986	4.45
633.318	4.44
633.651	4.44
633.984	4.44
634.316	4.45
634.649	4.45
634.981	4.45
635.313	4.45
635.646	4.45
635.978	4.44
636.31	4.43
636.643	4.43
636.975	4.43
637.307	4.43
637.639	4.44
637.971	4.44
638.303	4.45
638.635	4.44
638.967	4.45
639.299	4.45
639.631	4.45
639.963	4.46
640.295	4.47
640.626	4.48
640.958	4.48
641.29	4.48
641.621	4.48
641.953	4.49
642.285	4.5
642.616	4.52
642.948	4.51
643.279	4.52
643.61	4.52
643.942	4.51
644.273	4.51
644.604	4.51
644.936	4.51
645.267	4.52
645.598	4.53
645.929	4.53
646.26	4.53
646.591	4.53
646.922	4.53
647.253	4.53
647.584	4.52
647.915	4.53
648.245	4.54
648.576	4.55
648.907	4.54
649.238	4.55
649.568	4.54
649.899	4.55
650.229	4.55
650.56	4.56
650.89	4.58
651.221	4.57
651.551	4.58
651.882	4.58
652.212	4.58
652.542	4.58
652.872	4.58
653.203	4.59
653.533	4.59
653.863	4.58
654.193	4.58
654.523	4.58
654.853	4.58
655.183	4.58
655.513	4.58
655.843	4.59
656.172	4.59
656.502	4.6
656.832	4.59
657.162	4.6
657.491	4.59
657.821	4.59
658.15	4.59
658.48	4.58
658.809	4.58
659.139	4.58
659.468	4.59
659.798	4.6
660.127	4.59
660.456	4.62
660.785	4.63
661.115	4.64
661.444	4.65
661.773	4.66
662.102	4.66
662.431	4.66
662.76	4.67
663.089	4.67
663.418	4.67
663.747	4.66
664.076	4.67
664.404	4.66
664.733	4.67
665.062	4.68
665.39	4.68
665.719	4.68
666.048	4.67
666.376	4.68
666.705	4.66
667.033	4.65
667.362	4.65
667.69	4.66
668.018	4.66
668.347	4.67
668.675	4.64
669.003	4.65
669.331	4.65
669.659	4.63
669.987	4.64
670.315	4.64
670.643	4.65
670.971	4.66
671.299	4.65
671.627	4.65
671.955	4.65
672.283	4.64
672.61	4.65
672.938	4.67
673.266	4.67
673.593	4.68
673.921	4.69
674.249	4.68
674.576	4.69
674.904	4.7
675.231	4.7
675.558	4.71
675.886	4.72
676.213	4.72
676.54	4.73
676.867	4.74
677.195	4.75
677.522	4.76
677.849	4.78
678.176	4.8
678.503	4.81
678.83	4.81
679.157	4.82
679.484	4.81
679.81	4.81
680.137	4.81
680.464	4.82
680.791	4.82
681.117	4.81
681.444	4.8
681.771	4.8
