Data from UWBM50074_Reflection_00001.txt Node
Date: Sun May 02 12:33:54 EDT 2021
User: vgr7
Spectrometer: USB2G7710
Scans to average: 10
Trigger mode: 4
Integration Time (sec): 1.000000E-1
Electric dark correction enabled: true
Boxcar width: 10
XAxis mode: Wavelengths
Number of Pixels in Spectrum: 2048
>>>>>Begin Spectral Data<<<<<
177.721	215.67
178.105	190.91
178.488	236.07
178.871	-67.92
179.254	192
179.636	0
180.019	109.92
180.402	-21.05
180.785	109.21
181.168	129.5
181.55	127.56
181.933	-18.46
182.316	-81.6
182.698	-101.12
183.081	-172.8
183.463	281.01
183.846	96.57
184.228	83.1
184.611	60.13
184.993	71.69
185.376	45.52
185.758	23.48
186.14	14.68
186.522	18.17
186.904	18.1
187.287	21.13
187.669	10.93
188.051	15.1
188.433	19.37
188.815	16.45
189.197	18.46
189.579	16
189.961	17.45
190.342	12.7
190.724	15.81
191.106	13.84
191.488	14.33
191.869	8.08
192.251	12.1
192.633	13.77
193.014	7.75
193.396	8.96
193.777	12.42
194.159	11.42
194.54	3.19
194.922	4.27
195.303	7.86
195.684	11.67
196.065	9.26
196.447	7.9
196.828	6.81
197.209	3.67
197.59	5.33
197.971	3.92
198.352	6.35
198.733	8.42
199.114	6.78
199.495	6.39
199.876	7.95
200.257	6.41
200.638	4.39
201.018	6.67
201.399	9.41
201.78	9.85
202.16	8.85
202.541	12.57
202.922	9.88
203.302	4.13
203.683	1.31
204.063	-0.9
204.444	-0.56
204.824	-0.67
205.204	0.93
205.585	1.31
205.965	3.57
206.345	4.65
206.725	-1.71
207.106	-0.43
207.486	-0.43
207.866	2.09
208.246	1.11
208.626	3
209.006	1.32
209.386	-0.53
209.766	-0.39
210.145	1.43
210.525	0.25
210.905	3.18
211.285	3.6
211.664	3.18
212.044	5.43
212.424	7.12
212.803	7.22
213.183	8.19
213.562	6.1
213.942	4.31
214.321	0.74
214.701	-0.36
215.08	1.28
215.459	0.34
215.838	-2.55
216.218	-0.22
216.597	-1
216.976	0.34
217.355	2
217.734	1.44
218.113	0.88
218.492	3.13
218.871	3.42
219.25	4.54
219.629	6.18
220.008	6.14
220.387	3.79
220.766	1.75
221.144	1.04
221.523	2.52
221.902	4.09
222.28	5.71
222.659	8.11
223.037	7.09
223.416	9.04
223.794	11.36
224.173	10.16
224.551	10.45
224.929	8.29
225.308	7.6
225.686	7.43
226.064	7.33
226.442	6.53
226.821	5.03
227.199	5.2
227.577	4.39
227.955	3.93
228.333	4.79
228.711	5.41
229.089	6.28
229.467	5.55
229.845	5.88
230.222	5.94
230.6	6.17
230.978	6.71
231.356	6.34
231.733	5.59
232.111	5.72
232.488	5.63
232.866	5.86
233.243	5.73
233.621	5.89
233.998	5.85
234.376	5.77
234.753	6.08
235.13	6.32
235.508	6.73
235.885	6.57
236.262	6.25
236.639	6.57
237.016	6.35
237.393	6.31
237.77	6.01
238.147	5.92
238.524	5.75
238.901	5.6
239.278	5.74
239.655	5.69
240.032	5.69
240.409	5.62
240.785	5.57
241.162	5.52
241.539	5.39
241.915	5.28
242.292	5.26
242.668	5.19
243.045	4.99
243.421	4.98
243.798	4.99
244.174	4.95
244.551	4.8
244.927	4.68
245.303	4.67
245.679	4.69
246.056	4.6
246.432	4.65
246.808	4.6
247.184	4.51
247.56	4.53
247.936	4.48
248.312	4.49
248.688	4.52
249.064	4.49
249.44	4.5
249.815	4.51
250.191	4.48
250.567	4.44
250.943	4.47
251.318	4.44
251.694	4.39
252.069	4.36
252.445	4.44
252.82	4.46
253.196	4.46
253.571	4.4
253.947	4.53
254.322	4.45
254.697	4.47
255.073	4.42
255.448	4.35
255.823	4.3
256.198	4.2
256.573	4.08
256.948	4.05
257.323	4.08
257.698	4.06
258.073	4.03
258.448	4.05
258.823	4.03
259.198	3.99
259.573	4.01
259.948	4.02
260.322	3.97
260.697	3.96
261.072	3.93
261.446	3.9
261.821	3.88
262.195	3.84
262.57	3.83
262.944	3.83
263.319	3.83
263.693	3.83
264.067	3.85
264.442	3.87
264.816	3.87
265.19	3.82
265.564	3.85
265.938	3.83
266.313	3.8
266.687	3.76
267.061	3.8
267.435	3.76
267.809	3.77
268.183	3.77
268.556	3.79
268.93	3.79
269.304	3.79
269.678	3.75
270.051	3.78
270.425	3.78
270.799	3.8
271.172	3.82
271.546	3.84
271.919	3.87
272.293	3.86
272.666	3.85
273.04	3.86
273.413	3.79
273.787	3.77
274.16	3.77
274.533	3.79
274.906	3.76
275.279	3.77
275.653	3.75
276.026	3.71
276.399	3.68
276.772	3.71
277.145	3.74
277.518	3.76
277.891	3.76
278.263	3.76
278.636	3.78
279.009	3.73
279.382	3.7
279.755	3.64
280.127	3.64
280.5	3.65
280.872	3.63
281.245	3.67
281.617	3.71
281.99	3.71
282.362	3.72
282.735	3.69
283.107	3.72
283.479	3.72
283.852	3.72
284.224	3.74
284.596	3.71
284.968	3.7
285.34	3.67
285.713	3.7
286.085	3.68
286.457	3.68
286.829	3.68
287.201	3.69
287.572	3.72
287.944	3.74
288.316	3.76
288.688	3.79
289.06	3.79
289.431	3.79
289.803	3.79
290.175	3.79
290.546	3.81
290.918	3.81
291.289	3.81
291.661	3.84
292.032	3.81
292.403	3.85
292.775	3.83
293.146	3.84
293.517	3.82
293.889	3.83
294.26	3.8
294.631	3.81
295.002	3.82
295.373	3.84
295.744	3.81
296.115	3.8
296.486	3.78
296.857	3.76
297.228	3.77
297.599	3.77
297.97	3.75
298.34	3.75
298.711	3.74
299.082	3.73
299.452	3.72
299.823	3.75
300.194	3.73
300.564	3.71
300.935	3.7
301.305	3.67
301.676	3.66
302.046	3.67
302.416	3.68
302.787	3.68
303.157	3.67
303.527	3.69
303.897	3.69
304.267	3.69
304.637	3.7
305.008	3.71
305.378	3.71
305.748	3.72
306.117	3.73
306.487	3.71
306.857	3.73
307.227	3.71
307.597	3.7
307.967	3.71
308.336	3.73
308.706	3.76
309.076	3.75
309.445	3.77
309.815	3.74
310.184	3.74
310.554	3.72
310.923	3.68
311.293	3.69
311.662	3.66
312.031	3.65
312.401	3.66
312.77	3.64
313.139	3.64
313.508	3.63
313.877	3.62
314.246	3.63
314.616	3.63
314.985	3.65
315.353	3.64
315.722	3.64
316.091	3.64
316.46	3.63
316.829	3.66
317.198	3.67
317.567	3.69
317.935	3.66
318.304	3.68
318.672	3.69
319.041	3.69
319.41	3.71
319.778	3.74
320.147	3.74
320.515	3.74
320.883	3.73
321.252	3.74
321.62	3.69
321.988	3.71
322.357	3.68
322.725	3.66
323.093	3.65
323.461	3.63
323.829	3.63
324.197	3.62
324.565	3.6
324.933	3.58
325.301	3.59
325.669	3.59
326.037	3.58
326.405	3.59
326.772	3.57
327.14	3.55
327.508	3.53
327.875	3.51
328.243	3.49
328.61	3.48
328.978	3.49
329.346	3.53
329.713	3.49
330.08	3.51
330.448	3.51
330.815	3.52
331.182	3.49
331.55	3.48
331.917	3.49
332.284	3.48
332.651	3.48
333.018	3.48
333.385	3.49
333.752	3.49
334.119	3.48
334.486	3.47
334.853	3.48
335.22	3.5
335.587	3.51
335.954	3.53
336.32	3.54
336.687	3.5
337.054	3.52
337.42	3.54
337.787	3.51
338.153	3.52
338.52	3.54
338.886	3.56
339.253	3.56
339.619	3.56
339.986	3.58
340.352	3.58
340.718	3.6
341.084	3.6
341.451	3.61
341.817	3.61
342.183	3.64
342.549	3.64
342.915	3.62
343.281	3.64
343.647	3.65
344.013	3.65
344.379	3.66
344.745	3.65
345.11	3.67
345.476	3.69
345.842	3.7
346.208	3.69
346.573	3.7
346.939	3.72
347.304	3.71
347.67	3.69
348.035	3.7
348.401	3.69
348.766	3.68
349.132	3.68
349.497	3.7
349.862	3.68
350.228	3.69
350.593	3.7
350.958	3.69
351.323	3.68
351.688	3.7
352.053	3.71
352.418	3.72
352.783	3.71
353.148	3.7
353.513	3.68
353.878	3.7
354.243	3.69
354.608	3.68
354.972	3.68
355.337	3.67
355.702	3.66
356.066	3.65
356.431	3.65
356.795	3.65
357.16	3.63
357.524	3.63
357.889	3.61
358.253	3.61
358.618	3.61
358.982	3.62
359.346	3.61
359.71	3.59
360.075	3.58
360.439	3.58
360.803	3.58
361.167	3.57
361.531	3.55
361.895	3.55
362.259	3.54
362.623	3.54
362.987	3.55
363.351	3.56
363.714	3.57
364.078	3.57
364.442	3.56
364.806	3.55
365.169	3.57
365.533	3.57
365.896	3.56
366.26	3.55
366.623	3.53
366.987	3.54
367.35	3.55
367.714	3.56
368.077	3.57
368.44	3.56
368.803	3.57
369.167	3.58
369.53	3.59
369.893	3.61
370.256	3.61
370.619	3.62
370.982	3.61
371.345	3.61
371.708	3.61
372.071	3.62
372.434	3.63
372.797	3.62
373.159	3.63
373.522	3.64
373.885	3.66
374.247	3.66
374.61	3.65
374.973	3.64
375.335	3.64
375.698	3.64
376.06	3.63
376.423	3.64
376.785	3.64
377.147	3.64
377.51	3.65
377.872	3.65
378.234	3.64
378.596	3.65
378.958	3.65
379.321	3.65
379.683	3.65
380.045	3.65
380.407	3.65
380.769	3.66
381.13	3.66
381.492	3.64
381.854	3.65
382.216	3.65
382.578	3.66
382.939	3.67
383.301	3.66
383.663	3.67
384.024	3.66
384.386	3.67
384.747	3.68
385.109	3.67
385.47	3.67
385.832	3.68
386.193	3.67
386.554	3.67
386.916	3.68
387.277	3.68
387.638	3.69
387.999	3.69
388.36	3.69
388.721	3.7
389.082	3.71
389.443	3.7
389.804	3.7
390.165	3.7
390.526	3.7
390.887	3.7
391.248	3.7
391.609	3.71
391.969	3.7
392.33	3.69
392.691	3.7
393.051	3.71
393.412	3.7
393.772	3.7
394.133	3.71
394.493	3.7
394.854	3.7
395.214	3.69
395.574	3.7
395.935	3.69
396.295	3.69
396.655	3.68
397.015	3.68
397.376	3.68
397.736	3.68
398.096	3.67
398.456	3.68
398.816	3.69
399.176	3.68
399.535	3.69
399.895	3.7
400.255	3.7
400.615	3.69
400.975	3.7
401.334	3.7
401.694	3.71
402.054	3.72
402.413	3.73
402.773	3.73
403.132	3.74
403.492	3.74
403.851	3.74
404.211	3.75
404.57	3.76
404.929	3.75
405.288	3.76
405.648	3.76
406.007	3.76
406.366	3.75
406.725	3.76
407.084	3.75
407.443	3.75
407.802	3.75
408.161	3.76
408.52	3.76
408.879	3.76
409.238	3.76
409.596	3.75
409.955	3.75
410.314	3.75
410.673	3.74
411.031	3.74
411.39	3.75
411.748	3.76
412.107	3.76
412.465	3.77
412.824	3.77
413.182	3.78
413.54	3.8
413.899	3.8
414.257	3.81
414.615	3.82
414.974	3.84
415.332	3.84
415.69	3.85
416.048	3.86
416.406	3.9
416.764	3.94
417.122	3.98
417.48	4.02
417.838	4.07
418.195	4.14
418.553	4.19
418.911	4.25
419.269	4.3
419.626	4.35
419.984	4.41
420.342	4.46
420.699	4.51
421.057	4.56
421.414	4.61
421.772	4.65
422.129	4.69
422.486	4.72
422.844	4.74
423.201	4.74
423.558	4.73
423.915	4.69
424.273	4.66
424.63	4.61
424.987	4.55
425.344	4.5
425.701	4.43
426.058	4.39
426.415	4.34
426.772	4.28
427.128	4.24
427.485	4.17
427.842	4.12
428.199	4.07
428.555	4.01
428.912	3.95
429.269	3.9
429.625	3.86
429.982	3.83
430.338	3.81
430.695	3.8
431.051	3.81
431.407	3.83
431.764	3.85
432.12	3.88
432.476	3.91
432.832	3.93
433.189	3.94
433.545	3.95
433.901	3.95
434.257	3.96
434.613	3.96
434.969	3.98
435.325	4
435.681	4.02
436.036	4.05
436.392	4.08
436.748	4.13
437.104	4.17
437.459	4.21
437.815	4.26
438.171	4.31
438.526	4.33
438.882	4.37
439.237	4.41
439.593	4.42
439.948	4.45
440.304	4.46
440.659	4.48
441.014	4.51
441.369	4.54
441.725	4.58
442.08	4.63
442.435	4.67
442.79	4.73
443.145	4.78
443.5	4.81
443.855	4.85
444.21	4.86
444.565	4.86
444.92	4.87
445.275	4.86
445.629	4.86
445.984	4.86
446.339	4.84
446.693	4.81
447.048	4.8
447.403	4.79
447.757	4.78
448.112	4.76
448.466	4.72
448.82	4.68
449.175	4.63
449.529	4.57
449.883	4.5
450.238	4.42
450.592	4.36
450.946	4.29
451.3	4.22
451.654	4.18
452.008	4.13
452.362	4.07
452.716	4.03
453.07	3.98
453.424	3.95
453.778	3.93
454.132	3.93
454.486	3.93
454.839	3.94
455.193	3.97
455.547	4.01
455.9	4.06
456.254	4.11
456.607	4.17
456.961	4.24
457.314	4.31
457.668	4.37
458.021	4.41
458.375	4.46
458.728	4.47
459.081	4.49
459.434	4.49
459.787	4.5
460.141	4.48
460.494	4.46
460.847	4.44
461.2	4.43
461.553	4.41
461.906	4.4
462.259	4.38
462.611	4.35
462.964	4.32
463.317	4.28
463.67	4.23
464.022	4.19
464.375	4.15
464.728	4.09
465.08	4.04
465.433	4
465.785	3.97
466.138	3.96
466.49	3.93
466.843	3.93
467.195	3.94
467.547	3.96
467.899	4
468.252	4.03
468.604	4.05
468.956	4.06
469.308	4.08
469.66	4.09
470.012	4.09
470.364	4.09
470.716	4.09
471.068	4.1
471.42	4.1
471.772	4.09
472.123	4.1
472.475	4.1
472.827	4.1
473.178	4.1
473.53	4.1
473.882	4.11
474.233	4.11
474.585	4.12
474.936	4.11
475.288	4.12
475.639	4.11
475.99	4.12
476.342	4.13
476.693	4.14
477.044	4.15
477.395	4.18
477.746	4.22
478.097	4.29
478.448	4.4
478.8	4.57
479.15	4.78
479.501	5.03
479.852	5.3
480.203	5.59
480.554	5.89
480.905	6.2
481.255	6.52
481.606	6.84
481.957	7.16
482.307	7.48
482.658	7.78
483.009	8.07
483.359	8.33
483.709	8.59
484.06	8.84
484.41	9.07
484.761	9.28
485.111	9.48
485.461	9.63
485.811	9.73
486.162	9.78
486.512	9.77
486.862	9.72
487.212	9.63
487.562	9.52
487.912	9.39
488.262	9.24
488.612	9.08
488.961	8.91
489.311	8.71
489.661	8.51
490.011	8.32
490.36	8.12
490.71	7.91
491.06	7.69
491.409	7.47
491.759	7.26
492.108	7.05
492.458	6.85
492.807	6.65
493.157	6.47
493.506	6.29
493.855	6.12
494.204	5.95
494.554	5.8
494.903	5.65
495.252	5.49
495.601	5.34
495.95	5.2
496.299	5.05
496.648	4.91
496.997	4.78
497.346	4.66
497.695	4.56
498.043	4.49
498.392	4.43
498.741	4.39
499.09	4.36
499.438	4.33
499.787	4.3
500.135	4.28
500.484	4.26
500.832	4.25
501.181	4.23
501.529	4.21
501.878	4.2
502.226	4.18
502.574	4.17
502.923	4.16
503.271	4.16
503.619	4.17
503.967	4.18
504.315	4.19
504.663	4.21
505.011	4.24
505.359	4.26
505.707	4.29
506.055	4.31
506.403	4.34
506.751	4.36
507.098	4.38
507.446	4.39
507.794	4.4
508.141	4.41
508.489	4.42
508.837	4.43
509.184	4.43
509.531	4.43
509.879	4.43
510.226	4.43
510.574	4.43
510.921	4.42
511.268	4.42
511.616	4.42
511.963	4.42
512.31	4.42
512.657	4.42
513.004	4.42
513.351	4.43
513.698	4.43
514.045	4.45
514.392	4.47
514.739	4.49
515.086	4.51
515.432	4.55
515.779	4.58
516.126	4.61
516.473	4.64
516.819	4.67
517.166	4.69
517.512	4.71
517.859	4.72
518.205	4.72
518.552	4.72
518.898	4.71
519.245	4.71
519.591	4.71
519.937	4.7
520.283	4.71
520.629	4.71
520.976	4.72
521.322	4.74
521.668	4.75
522.014	4.78
522.36	4.8
522.706	4.85
523.052	4.93
523.398	5.04
523.743	5.18
524.089	5.35
524.435	5.54
524.781	5.75
525.126	5.98
525.472	6.22
525.817	6.47
526.163	6.72
526.509	6.95
526.854	7.17
527.199	7.36
527.545	7.52
527.89	7.65
528.235	7.78
528.581	7.88
528.926	7.98
529.271	8.06
529.616	8.13
529.961	8.17
530.306	8.18
530.651	8.16
530.996	8.11
531.341	8.02
531.686	7.92
532.031	7.79
532.376	7.64
532.721	7.47
533.065	7.29
533.41	7.11
533.755	6.93
534.099	6.77
534.444	6.62
534.788	6.48
535.133	6.36
535.477	6.26
535.822	6.16
536.166	6.09
536.51	6.03
536.855	5.99
537.199	5.97
537.543	5.95
537.887	5.95
538.231	5.97
538.576	5.99
538.92	6.01
539.264	6.05
539.608	6.09
539.951	6.12
540.295	6.14
540.639	6.16
540.983	6.17
541.327	6.18
541.671	6.19
542.014	6.19
542.358	6.19
542.701	6.18
543.045	6.16
543.389	6.11
543.732	6.04
544.075	5.96
544.419	5.85
544.762	5.73
545.105	5.58
545.449	5.44
545.792	5.3
546.135	5.17
546.478	5.05
546.821	4.93
547.165	4.84
547.508	4.75
547.851	4.68
548.194	4.63
548.536	4.58
548.879	4.53
549.222	4.5
549.565	4.47
549.908	4.45
550.25	4.43
550.593	4.42
550.936	4.42
551.278	4.43
551.621	4.44
551.963	4.46
552.306	4.5
552.648	4.53
552.991	4.54
553.333	4.55
553.675	4.55
554.017	4.56
554.36	4.56
554.702	4.56
555.044	4.56
555.386	4.56
555.728	4.55
556.07	4.54
556.412	4.54
556.754	4.54
557.096	4.55
557.438	4.54
557.78	4.54
558.121	4.54
558.463	4.53
558.805	4.53
559.147	4.53
559.488	4.53
559.83	4.54
560.171	4.55
560.513	4.55
560.854	4.55
561.196	4.55
561.537	4.56
561.878	4.56
562.22	4.57
562.561	4.57
562.902	4.58
563.243	4.58
563.584	4.59
563.925	4.6
564.266	4.6
564.607	4.6
564.948	4.61
565.289	4.61
565.63	4.61
565.971	4.61
566.312	4.61
566.653	4.61
566.993	4.6
567.334	4.61
567.675	4.61
568.015	4.61
568.356	4.61
568.696	4.61
569.037	4.62
569.377	4.62
569.718	4.63
570.058	4.63
570.398	4.63
570.739	4.64
571.079	4.63
571.419	4.63
571.759	4.64
572.099	4.64
572.439	4.64
572.779	4.65
573.119	4.65
573.459	4.65
573.799	4.66
574.139	4.66
574.479	4.67
574.819	4.67
575.158	4.66
575.498	4.66
575.838	4.66
576.177	4.65
576.517	4.65
576.856	4.64
577.196	4.65
577.535	4.65
577.875	4.65
578.214	4.64
578.553	4.65
578.893	4.64
579.232	4.63
579.571	4.62
579.91	4.62
580.25	4.62
580.589	4.62
580.928	4.61
581.267	4.6
581.606	4.6
581.945	4.6
582.283	4.6
582.622	4.6
582.961	4.61
583.3	4.61
583.639	4.62
583.977	4.62
584.316	4.62
584.654	4.62
584.993	4.62
585.332	4.62
585.67	4.62
586.008	4.63
586.347	4.64
586.685	4.65
587.024	4.66
587.362	4.67
587.7	4.67
588.038	4.68
588.376	4.68
588.715	4.69
589.053	4.69
589.391	4.69
589.729	4.69
590.067	4.68
590.404	4.68
590.742	4.68
591.08	4.67
591.418	4.68
591.756	4.68
592.093	4.68
592.431	4.69
592.769	4.7
593.106	4.69
593.444	4.69
593.781	4.69
594.119	4.69
594.456	4.69
594.793	4.7
595.131	4.69
595.468	4.7
595.805	4.7
596.143	4.7
596.48	4.71
596.817	4.72
597.154	4.72
597.491	4.72
597.828	4.73
598.165	4.73
598.502	4.72
598.839	4.73
599.176	4.73
599.512	4.73
599.849	4.73
600.186	4.74
600.523	4.74
600.859	4.76
601.196	4.76
601.532	4.77
601.869	4.78
602.205	4.78
602.542	4.79
602.878	4.79
603.215	4.8
603.551	4.8
603.887	4.8
604.223	4.81
604.56	4.81
604.896	4.81
605.232	4.81
605.568	4.81
605.904	4.82
606.24	4.83
606.576	4.83
606.912	4.83
607.248	4.83
607.583	4.83
607.919	4.83
608.255	4.83
608.591	4.83
608.926	4.82
609.262	4.82
609.597	4.82
609.933	4.81
610.268	4.81
610.604	4.8
610.939	4.8
611.275	4.79
611.61	4.79
611.945	4.79
612.281	4.8
612.616	4.8
612.951	4.79
613.286	4.79
613.621	4.79
613.956	4.8
614.291	4.8
614.626	4.8
614.961	4.81
615.296	4.8
615.631	4.79
615.966	4.79
616.3	4.8
616.635	4.8
616.97	4.81
617.304	4.81
617.639	4.81
617.973	4.82
618.308	4.82
618.642	4.83
618.977	4.83
619.311	4.83
619.646	4.83
619.98	4.84
620.314	4.82
620.648	4.83
620.983	4.82
621.317	4.82
621.651	4.83
621.985	4.82
622.319	4.83
622.653	4.82
622.987	4.83
623.321	4.83
623.655	4.83
623.988	4.84
624.322	4.84
624.656	4.84
624.99	4.83
625.323	4.85
625.657	4.85
625.99	4.86
626.324	4.87
626.657	4.87
626.991	4.88
627.324	4.88
627.658	4.88
627.991	4.89
628.324	4.89
628.657	4.9
628.991	4.91
629.324	4.92
629.657	4.93
629.99	4.92
630.323	4.93
630.656	4.94
630.989	4.94
631.322	4.95
631.655	4.95
631.987	4.95
632.32	4.94
632.653	4.95
632.986	4.95
633.318	4.95
633.651	4.95
633.984	4.95
634.316	4.97
634.649	4.98
634.981	4.98
635.313	4.97
635.646	4.97
635.978	4.97
636.31	4.97
636.643	4.97
636.975	4.99
637.307	4.98
637.639	4.98
637.971	4.99
638.303	4.99
638.635	4.99
638.967	4.99
639.299	5
639.631	5
639.963	5
640.295	5
640.626	5.01
640.958	5.02
641.29	5.01
641.621	5
641.953	5.01
642.285	5.04
642.616	5.04
642.948	5.03
643.279	5.03
643.61	5.02
643.942	5.03
644.273	5.04
644.604	5.03
644.936	5.01
645.267	5.02
645.598	5.03
645.929	5.03
646.26	5.03
646.591	5.04
646.922	5.05
647.253	5.05
647.584	5.04
647.915	5.04
648.245	5.05
648.576	5.07
648.907	5.05
649.238	5.05
649.568	5.04
649.899	5.05
650.229	5.05
650.56	5.06
650.89	5.06
651.221	5.09
651.551	5.1
651.882	5.12
652.212	5.14
652.542	5.14
652.872	5.14
653.203	5.16
653.533	5.17
653.863	5.16
654.193	5.17
654.523	5.17
654.853	5.17
655.183	5.16
655.513	5.16
655.843	5.18
656.172	5.18
656.502	5.2
656.832	5.21
657.162	5.22
657.491	5.23
657.821	5.22
658.15	5.2
658.48	5.2
658.809	5.19
659.139	5.19
659.468	5.2
659.798	5.22
660.127	5.21
660.456	5.22
660.785	5.24
661.115	5.25
661.444	5.25
661.773	5.27
662.102	5.29
662.431	5.3
662.76	5.3
663.089	5.3
663.418	5.3
663.747	5.3
664.076	5.3
664.404	5.3
664.733	5.31
665.062	5.33
665.39	5.33
665.719	5.32
666.048	5.33
666.376	5.33
666.705	5.32
667.033	5.32
667.362	5.3
667.69	5.3
668.018	5.3
668.347	5.31
668.675	5.29
669.003	5.29
669.331	5.3
669.659	5.29
669.987	5.3
670.315	5.3
670.643	5.31
670.971	5.31
671.299	5.32
671.627	5.32
671.955	5.31
672.283	5.31
672.61	5.33
672.938	5.33
673.266	5.32
673.593	5.33
673.921	5.32
674.249	5.33
674.576	5.35
674.904	5.36
675.231	5.37
675.558	5.39
675.886	5.41
676.213	5.41
676.54	5.42
676.867	5.43
677.195	5.42
677.522	5.44
677.849	5.45
678.176	5.47
678.503	5.48
678.83	5.5
679.157	5.51
679.484	5.5
679.81	5.49
680.137	5.5
680.464	5.52
680.791	5.52
681.117	5.52
681.444	5.5
681.771	5.51
682.097	5.49
682.424	5.47
682.75	5.46
