Data from UWBM59056_Reflection_00012.txt Node
Date: Sun May 02 13:45:41 EDT 2021
User: vgr7
Spectrometer: USB2G7710
Scans to average: 10
Trigger mode: 4
Integration Time (sec): 1.000000E-1
Electric dark correction enabled: true
Boxcar width: 20
XAxis mode: Wavelengths
Number of Pixels in Spectrum: 2048
>>>>>Begin Spectral Data<<<<<
177.721	123.43
178.105	110.16
178.488	102.94
178.871	151.54
179.254	150.53
179.636	84.96
180.019	66.54
180.402	52.4
180.785	40.36
181.168	39.32
181.55	37.68
181.933	38.61
182.316	34
182.698	29.02
183.081	23.13
183.463	16.99
183.846	13.22
184.228	17.68
184.611	19.76
184.993	19.44
185.376	21.7
185.758	22.25
186.14	22.44
186.522	22.7
186.904	20.34
187.287	17.81
187.669	19.92
188.051	21.06
188.433	18.16
188.815	12.29
189.197	12.91
189.579	11.81
189.961	11.15
190.342	11.27
190.724	12.34
191.106	11.17
191.488	11.57
191.869	8.11
192.251	8.34
192.633	5.92
193.014	3.26
193.396	-0.39
193.777	0.85
194.159	0.74
194.54	-0.6
194.922	-1.73
195.303	-1.43
195.684	-2.2
196.065	0.14
196.447	1.38
196.828	0.64
197.209	-0.69
197.59	-3.75
197.971	-4.64
198.352	-3.16
198.733	-0.59
199.114	2.55
199.495	3.7
199.876	0.85
200.257	-0.34
200.638	-0.57
201.018	1.29
201.399	2.91
201.78	3.47
202.16	3.94
202.541	4.45
202.922	4.94
203.302	5.88
203.683	5.65
204.063	7.43
204.444	9.66
204.824	10.22
205.204	9.2
205.585	9.61
205.965	11.22
206.345	10.44
206.725	10.96
207.106	9.77
207.486	10.57
207.866	11.42
208.246	12.2
208.626	11.84
209.006	12.92
209.386	12.73
209.766	12.5
210.145	11.71
210.525	12.19
210.905	13.21
211.285	11.96
211.664	11.14
212.044	10.16
212.424	9.21
212.803	9.78
213.183	10.88
213.562	13.33
213.942	13.09
214.321	11.27
214.701	8.33
215.08	9.12
215.459	9.71
215.838	9.75
216.218	8.87
216.597	6.3
216.976	6.88
217.355	6.56
217.734	7.29
218.113	7.92
218.492	6.55
218.871	5.55
219.25	5.75
219.629	5.82
220.008	6.09
220.387	5.15
220.766	7.41
221.144	6.68
221.523	6.49
221.902	6.55
222.28	5.49
222.659	5.92
223.037	5.64
223.416	6.38
223.794	7.11
224.173	7.29
224.551	6.79
224.929	7.38
225.308	7.69
225.686	8
226.064	7.8
226.442	6.84
226.821	7.71
227.199	7.81
227.577	7.77
227.955	8.22
228.333	7.8
228.711	7.47
229.089	6.79
229.467	6.35
229.845	6.68
230.222	7.36
230.6	7.01
230.978	7.02
231.356	7.25
231.733	7.35
232.111	7.49
232.488	7.04
232.866	6.54
233.243	6.12
233.621	5.87
233.998	5.98
234.376	5.95
234.753	5.73
235.13	5.55
235.508	5.5
235.885	5.34
236.262	5.1
236.639	5.14
237.016	5.07
237.393	5.11
237.77	5.2
238.147	5.16
238.524	5.18
238.901	4.92
239.278	4.88
239.655	4.91
240.032	4.98
240.409	4.96
240.785	4.95
241.162	4.93
241.539	4.91
241.915	4.99
242.292	4.97
242.668	4.94
243.045	4.95
243.421	4.91
243.798	4.94
244.174	4.95
244.551	4.95
244.927	4.99
245.303	4.98
245.679	4.94
246.056	4.89
246.432	4.89
246.808	4.85
247.184	4.84
247.56	4.83
247.936	4.79
248.312	4.79
248.688	4.77
249.064	4.75
249.44	4.75
249.815	4.73
250.191	4.71
250.567	4.72
250.943	4.7
251.318	4.67
251.694	4.7
252.069	4.69
252.445	4.67
252.82	4.63
253.196	4.6
253.571	4.59
253.947	4.57
254.322	4.57
254.697	4.57
255.073	4.54
255.448	4.52
255.823	4.49
256.198	4.48
256.573	4.46
256.948	4.44
257.323	4.42
257.698	4.38
258.073	4.35
258.448	4.34
258.823	4.33
259.198	4.33
259.573	4.3
259.948	4.29
260.322	4.28
260.697	4.24
261.072	4.22
261.446	4.2
261.821	4.17
262.195	4.15
262.57	4.14
262.944	4.14
263.319	4.17
263.693	4.16
264.067	4.17
264.442	4.17
264.816	4.14
265.19	4.14
265.564	4.15
265.938	4.13
266.313	4.15
266.687	4.14
267.061	4.12
267.435	4.1
267.809	4.1
268.183	4.11
268.556	4.11
268.93	4.11
269.304	4.11
269.678	4.12
270.051	4.11
270.425	4.09
270.799	4.07
271.172	4.08
271.546	4.06
271.919	4.06
272.293	4.07
272.666	4.06
273.04	4.08
273.413	4.1
273.787	4.1
274.16	4.1
274.533	4.1
274.906	4.11
275.279	4.11
275.653	4.11
276.026	4.12
276.399	4.15
276.772	4.19
277.145	4.18
277.518	4.19
277.891	4.2
278.263	4.18
278.636	4.18
279.009	4.18
279.382	4.17
279.755	4.18
280.127	4.2
280.5	4.21
280.872	4.23
281.245	4.23
281.617	4.21
281.99	4.24
282.362	4.22
282.735	4.23
283.107	4.24
283.479	4.22
283.852	4.24
284.224	4.23
284.596	4.24
284.968	4.21
285.34	4.22
285.713	4.23
286.085	4.25
286.457	4.25
286.829	4.25
287.201	4.27
287.572	4.27
287.944	4.27
288.316	4.26
288.688	4.25
289.06	4.25
289.431	4.24
289.803	4.26
290.175	4.27
290.546	4.29
290.918	4.32
291.289	4.33
291.661	4.33
292.032	4.32
292.403	4.34
292.775	4.36
293.146	4.37
293.517	4.39
293.889	4.4
294.26	4.42
294.631	4.46
295.002	4.47
295.373	4.48
295.744	4.49
296.115	4.49
296.486	4.52
296.857	4.55
297.228	4.57
297.599	4.61
297.97	4.63
298.34	4.64
298.711	4.66
299.082	4.67
299.452	4.7
299.823	4.72
300.194	4.75
300.564	4.77
300.935	4.81
301.305	4.85
301.676	4.88
302.046	4.91
302.416	4.94
302.787	4.95
303.157	4.99
303.527	5.03
303.897	5.06
304.267	5.11
304.637	5.14
305.008	5.18
305.378	5.22
305.748	5.26
306.117	5.28
306.487	5.33
306.857	5.37
307.227	5.43
307.597	5.49
307.967	5.54
308.336	5.58
308.706	5.6
309.076	5.64
309.445	5.68
309.815	5.7
310.184	5.74
310.554	5.77
310.923	5.82
311.293	5.85
311.662	5.89
312.031	5.92
312.401	5.97
312.77	6.01
313.139	6.05
313.508	6.1
313.877	6.16
314.246	6.2
314.616	6.23
314.985	6.27
315.353	6.32
315.722	6.34
316.091	6.38
316.46	6.39
316.829	6.44
317.198	6.49
317.567	6.53
317.935	6.6
318.304	6.64
318.672	6.7
319.041	6.78
319.41	6.82
319.778	6.89
320.147	6.93
320.515	6.97
320.883	7
321.252	7.05
321.62	7.1
321.988	7.16
322.357	7.19
322.725	7.23
323.093	7.27
323.461	7.32
323.829	7.37
324.197	7.41
324.565	7.47
324.933	7.52
325.301	7.55
325.669	7.6
326.037	7.62
326.405	7.67
326.772	7.72
327.14	7.76
327.508	7.78
327.875	7.8
328.243	7.84
328.61	7.87
328.978	7.9
329.346	7.93
329.713	7.98
330.08	8.03
330.448	8.06
330.815	8.1
331.182	8.14
331.55	8.19
331.917	8.23
332.284	8.26
332.651	8.31
333.018	8.36
333.385	8.41
333.752	8.45
334.119	8.48
334.486	8.53
334.853	8.56
335.22	8.61
335.587	8.65
335.954	8.7
336.32	8.75
336.687	8.77
337.054	8.8
337.42	8.84
337.787	8.86
338.153	8.9
338.52	8.92
338.886	8.94
339.253	8.98
339.619	9
339.986	9.03
340.352	9.08
340.718	9.1
341.084	9.14
341.451	9.17
341.817	9.19
342.183	9.24
342.549	9.27
342.915	9.3
343.281	9.32
343.647	9.35
344.013	9.37
344.379	9.4
344.745	9.42
345.11	9.45
345.476	9.48
345.842	9.5
346.208	9.52
346.573	9.53
346.939	9.56
347.304	9.59
347.67	9.6
348.035	9.62
348.401	9.64
348.766	9.66
349.132	9.67
349.497	9.69
349.862	9.73
350.228	9.74
350.593	9.76
350.958	9.77
351.323	9.78
351.688	9.8
352.053	9.82
352.418	9.82
352.783	9.83
353.148	9.84
353.513	9.85
353.878	9.86
354.243	9.86
354.608	9.87
354.972	9.88
355.337	9.88
355.702	9.88
356.066	9.87
356.431	9.87
356.795	9.87
357.16	9.86
357.524	9.87
357.889	9.87
358.253	9.86
358.618	9.85
358.982	9.84
359.346	9.83
359.71	9.82
360.075	9.82
360.439	9.8
360.803	9.8
361.167	9.78
361.531	9.78
361.895	9.76
362.259	9.74
362.623	9.72
362.987	9.69
363.351	9.66
363.714	9.64
364.078	9.63
364.442	9.61
364.806	9.57
365.169	9.56
365.533	9.53
365.896	9.51
366.26	9.49
366.623	9.45
366.987	9.43
367.35	9.4
367.714	9.37
368.077	9.33
368.44	9.29
368.803	9.25
369.167	9.21
369.53	9.17
369.893	9.11
370.256	9.06
370.619	9.01
370.982	8.97
371.345	8.93
371.708	8.88
372.071	8.84
372.434	8.78
372.797	8.73
373.159	8.67
373.522	8.64
373.885	8.59
374.247	8.55
374.61	8.49
374.973	8.43
375.335	8.38
375.698	8.33
376.06	8.29
376.423	8.23
376.785	8.18
377.147	8.12
377.51	8.08
377.872	8.04
378.234	7.98
378.596	7.93
378.958	7.88
379.321	7.83
379.683	7.78
380.045	7.73
380.407	7.69
380.769	7.63
381.13	7.58
381.492	7.54
381.854	7.5
382.216	7.45
382.578	7.41
382.939	7.38
383.301	7.33
383.663	7.3
384.024	7.25
384.386	7.21
384.747	7.18
385.109	7.15
385.47	7.11
385.832	7.06
386.193	7.01
386.554	6.98
386.916	6.93
387.277	6.9
387.638	6.86
387.999	6.83
388.36	6.79
388.721	6.76
389.082	6.72
389.443	6.69
389.804	6.65
390.165	6.62
390.526	6.59
390.887	6.55
391.248	6.52
391.609	6.49
391.969	6.46
392.33	6.42
392.691	6.39
393.051	6.36
393.412	6.33
393.772	6.29
394.133	6.25
394.493	6.22
394.854	6.18
395.214	6.15
395.574	6.11
395.935	6.08
396.295	6.04
396.655	6.01
397.015	5.97
397.376	5.93
397.736	5.9
398.096	5.87
398.456	5.83
398.816	5.81
399.176	5.77
399.535	5.73
399.895	5.7
400.255	5.67
400.615	5.64
400.975	5.61
401.334	5.58
401.694	5.55
402.054	5.53
402.413	5.5
402.773	5.47
403.132	5.45
403.492	5.43
403.851	5.41
404.211	5.39
404.57	5.37
404.929	5.35
405.288	5.33
405.648	5.31
406.007	5.29
406.366	5.28
406.725	5.26
407.084	5.24
407.443	5.23
407.802	5.21
408.161	5.2
408.52	5.18
408.879	5.18
409.238	5.16
409.596	5.15
409.955	5.14
410.314	5.13
410.673	5.11
411.031	5.11
411.39	5.1
411.748	5.09
412.107	5.08
412.465	5.07
412.824	5.08
413.182	5.09
413.54	5.1
413.899	5.11
414.257	5.13
414.615	5.17
414.974	5.18
415.332	5.21
415.69	5.24
416.048	5.26
416.406	5.29
416.764	5.31
417.122	5.33
417.48	5.35
417.838	5.37
418.195	5.38
418.553	5.39
418.911	5.39
419.269	5.38
419.626	5.37
419.984	5.35
420.342	5.32
420.699	5.29
421.057	5.25
421.414	5.22
421.772	5.2
422.129	5.18
422.486	5.17
422.844	5.16
423.201	5.15
423.558	5.13
423.915	5.12
424.273	5.11
424.63	5.1
424.987	5.09
425.344	5.08
425.701	5.06
426.058	5.05
426.415	5.05
426.772	5.03
427.128	5.02
427.485	5
427.842	4.98
428.199	4.95
428.555	4.92
428.912	4.89
429.269	4.85
429.625	4.82
429.982	4.78
430.338	4.74
430.695	4.71
431.051	4.67
431.407	4.64
431.764	4.62
432.12	4.59
432.476	4.57
432.832	4.56
433.189	4.55
433.545	4.56
433.901	4.57
434.257	4.59
434.613	4.62
434.969	4.64
435.325	4.67
435.681	4.71
436.036	4.73
436.392	4.75
436.748	4.77
437.104	4.78
437.459	4.8
437.815	4.81
438.171	4.84
438.526	4.86
438.882	4.89
439.237	4.93
439.593	4.97
439.948	5
440.304	5.04
440.659	5.07
441.014	5.09
441.369	5.11
441.725	5.13
442.08	5.15
442.435	5.16
442.79	5.16
443.145	5.16
443.5	5.16
443.855	5.15
444.21	5.15
444.565	5.14
444.92	5.12
445.275	5.11
445.629	5.09
445.984	5.08
446.339	5.06
446.693	5.05
447.048	5.03
447.403	5
447.757	4.97
448.112	4.94
448.466	4.91
448.82	4.88
449.175	4.85
449.529	4.83
449.883	4.81
450.238	4.78
450.592	4.77
450.946	4.75
451.3	4.74
451.654	4.75
452.008	4.74
452.362	4.74
452.716	4.73
453.07	4.73
453.424	4.72
453.778	4.7
454.132	4.69
454.486	4.67
454.839	4.64
455.193	4.62
455.547	4.6
455.9	4.57
456.254	4.55
456.607	4.52
456.961	4.49
457.314	4.47
457.668	4.46
458.021	4.45
458.375	4.45
458.728	4.46
459.081	4.46
459.434	4.48
459.787	4.5
460.141	4.51
460.494	4.52
460.847	4.53
461.2	4.54
461.553	4.56
461.906	4.57
462.259	4.58
462.611	4.59
462.964	4.6
463.317	4.62
463.67	4.63
464.022	4.64
464.375	4.66
464.728	4.67
465.08	4.68
465.433	4.69
465.785	4.7
466.138	4.7
466.49	4.69
466.843	4.68
467.195	4.67
467.547	4.67
467.899	4.65
468.252	4.63
468.604	4.62
468.956	4.61
469.308	4.61
469.66	4.62
470.012	4.63
470.364	4.64
470.716	4.66
471.068	4.69
471.42	4.72
471.772	4.76
472.123	4.78
472.475	4.8
472.827	4.82
473.178	4.83
473.53	4.85
473.882	4.86
474.233	4.89
474.585	4.94
474.936	5.01
475.288	5.11
475.639	5.24
475.99	5.39
476.342	5.56
476.693	5.73
477.044	5.91
477.395	6.1
477.746	6.29
478.097	6.47
478.448	6.67
478.8	6.85
479.15	7.02
479.501	7.18
479.852	7.32
480.203	7.46
480.554	7.59
480.905	7.7
481.255	7.82
481.606	7.93
481.957	8.03
482.307	8.12
482.658	8.22
483.009	8.3
483.359	8.39
483.709	8.47
484.06	8.54
484.41	8.62
484.761	8.7
485.111	8.77
485.461	8.83
485.811	8.9
486.162	8.95
486.512	9
486.862	9.04
487.212	9.06
487.562	9.07
487.912	9.09
488.262	9.09
488.612	9.08
488.961	9.06
489.311	9.02
489.661	8.94
490.011	8.85
490.36	8.74
490.71	8.61
491.06	8.47
491.409	8.32
491.759	8.17
492.108	8.01
492.458	7.85
492.807	7.68
493.157	7.52
493.506	7.36
493.855	7.22
494.204	7.08
494.554	6.96
494.903	6.85
495.252	6.74
495.601	6.65
495.95	6.56
496.299	6.48
496.648	6.42
496.997	6.35
497.346	6.3
497.695	6.25
498.043	6.2
498.392	6.17
498.741	6.13
499.09	6.11
499.438	6.09
499.787	6.09
500.135	6.09
500.484	6.1
500.832	6.13
501.181	6.18
501.529	6.25
501.878	6.34
502.226	6.43
502.574	6.54
502.923	6.65
503.271	6.78
503.619	6.91
503.967	7.04
504.315	7.17
504.663	7.32
505.011	7.47
505.359	7.62
505.707	7.78
506.055	7.95
506.403	8.12
506.751	8.3
507.098	8.5
507.446	8.7
507.794	8.91
508.141	9.13
508.489	9.37
508.837	9.61
509.184	9.86
509.531	10.12
509.879	10.39
510.226	10.68
510.574	10.98
510.921	11.29
511.268	11.61
511.616	11.95
511.963	12.3
512.31	12.66
512.657	13.02
513.004	13.37
513.351	13.71
513.698	14.04
514.045	14.37
514.392	14.67
514.739	14.96
515.086	15.25
515.432	15.54
515.779	15.82
516.126	16.13
516.473	16.46
516.819	16.81
517.166	17.19
517.512	17.58
517.859	18.01
518.205	18.45
518.552	18.93
518.898	19.44
519.245	20.01
519.591	20.69
519.937	21.47
520.283	22.36
520.629	23.32
520.976	24.31
521.322	25.34
521.668	26.37
522.014	27.41
522.36	28.45
522.706	29.46
523.052	30.45
523.398	31.39
523.743	32.26
524.089	33.07
524.435	33.82
524.781	34.55
525.126	35.27
525.472	35.97
525.817	36.66
526.163	37.33
526.509	37.98
526.854	38.62
527.199	39.26
527.545	39.9
527.89	40.56
528.235	41.2
528.581	41.82
528.926	42.39
529.271	42.94
529.616	43.45
529.961	43.94
530.306	44.38
530.651	44.78
530.996	45.15
531.341	45.49
531.686	45.81
532.031	46.09
532.376	46.41
532.721	46.75
533.065	47.13
533.41	47.51
533.755	47.83
534.099	48.09
534.444	48.29
534.788	48.45
535.133	48.59
535.477	48.68
535.822	48.73
536.166	48.72
536.51	48.64
536.855	48.48
537.199	48.29
537.543	48.08
537.887	47.93
538.231	47.81
538.576	47.72
538.92	47.59
539.264	47.46
539.608	47.29
539.951	47.1
540.295	46.89
540.639	46.67
540.983	46.42
541.327	46.14
541.671	45.86
542.014	45.62
542.358	45.4
542.701	45.32
543.045	45.29
543.389	45.29
543.732	45.33
544.075	45.39
544.419	45.47
544.762	45.56
545.105	45.68
545.449	45.8
545.792	45.94
546.135	46.07
546.478	46.15
546.821	46.16
547.165	46.08
547.508	45.92
547.851	45.71
548.194	45.44
548.536	45.11
548.879	44.73
549.222	44.32
549.565	43.9
549.908	43.48
550.25	43.11
550.593	42.8
550.936	42.58
551.278	42.43
551.621	42.34
551.963	42.28
552.306	42.24
552.648	42.25
552.991	42.29
553.333	42.35
553.675	42.44
554.017	42.59
554.36	42.75
554.702	42.97
555.044	43.22
555.386	43.53
555.728	43.86
556.07	44.13
556.412	44.41
556.754	44.56
557.096	44.7
557.438	44.84
557.78	44.99
558.121	45.13
558.463	45.26
558.805	45.39
559.147	45.51
559.488	45.65
559.83	45.78
560.171	45.91
560.513	46.03
560.854	46.15
561.196	46.27
561.537	46.39
561.878	46.52
562.22	46.63
562.561	46.74
562.902	46.86
563.243	46.98
563.584	47.1
563.925	47.22
564.266	47.33
564.607	47.45
564.948	47.57
565.289	47.7
565.63	47.81
565.971	47.91
566.312	48.02
566.653	48.12
566.993	48.22
567.334	48.33
567.675	48.43
568.015	48.51
568.356	48.6
568.696	48.68
569.037	48.77
569.377	48.86
569.718	48.95
570.058	49.03
570.398	49.09
570.739	49.16
571.079	49.22
571.419	49.28
571.759	49.34
572.099	49.4
572.439	49.45
572.779	49.51
573.119	49.55
573.459	49.59
573.799	49.65
574.139	49.69
574.479	49.75
574.819	49.8
575.158	49.85
575.498	49.9
575.838	49.93
576.177	49.98
576.517	50.03
576.856	50.07
577.196	50.11
577.535	50.14
577.875	50.18
578.214	50.23
578.553	50.27
578.893	50.29
579.232	50.32
579.571	50.35
579.91	50.38
580.25	50.42
580.589	50.45
580.928	50.48
581.267	50.51
581.606	50.55
581.945	50.59
582.283	50.63
582.622	50.67
582.961	50.73
583.3	50.78
583.639	50.82
583.977	50.86
584.316	50.92
584.654	50.96
584.993	51.02
585.332	51.07
585.67	51.13
586.008	51.18
586.347	51.23
586.685	51.29
587.024	51.36
587.362	51.42
587.7	51.48
588.038	51.55
588.376	51.6
588.715	51.67
589.053	51.74
589.391	51.81
589.729	51.9
590.067	51.96
590.404	52.03
590.742	52.09
591.08	52.15
591.418	52.21
591.756	52.27
592.093	52.32
592.431	52.36
592.769	52.41
593.106	52.46
593.444	52.5
593.781	52.55
594.119	52.58
594.456	52.62
594.793	52.66
595.131	52.71
595.468	52.75
595.805	52.8
596.143	52.85
596.48	52.91
596.817	52.96
597.154	53.01
597.491	53.07
597.828	53.13
598.165	53.19
598.502	53.24
598.839	53.29
599.176	53.34
599.512	53.38
599.849	53.42
600.186	53.45
600.523	53.49
600.859	53.52
601.196	53.56
601.532	53.59
601.869	53.61
602.205	53.65
602.542	53.68
602.878	53.71
603.215	53.73
603.551	53.76
603.887	53.79
604.223	53.82
604.56	53.85
604.896	53.88
605.232	53.9
605.568	53.92
605.904	53.95
606.24	53.97
606.576	53.99
606.912	54
607.248	54.02
607.583	54.04
607.919	54.08
608.255	54.1
608.591	54.13
608.926	54.15
609.262	54.18
609.597	54.19
609.933	54.2
610.268	54.21
610.604	54.21
610.939	54.21
611.275	54.21
611.61	54.21
611.945	54.21
612.281	54.22
612.616	54.24
612.951	54.25
613.286	54.26
613.621	54.26
613.956	54.29
614.291	54.31
614.626	54.31
614.961	54.32
615.296	54.32
615.631	54.34
615.966	54.35
616.3	54.36
616.635	54.38
616.97	54.39
617.304	54.4
617.639	54.43
617.973	54.44
618.308	54.45
618.642	54.47
618.977	54.5
619.311	54.52
619.646	54.53
619.98	54.56
620.314	54.58
620.648	54.62
620.983	54.64
621.317	54.67
621.651	54.68
621.985	54.7
622.319	54.73
622.653	54.75
622.987	54.76
623.321	54.78
623.655	54.8
623.988	54.82
624.322	54.84
624.656	54.86
624.99	54.89
625.323	54.91
625.657	54.93
625.99	54.94
626.324	54.94
626.657	54.96
626.991	54.98
627.324	55
627.658	55.02
627.991	55.05
628.324	55.07
628.657	55.08
628.991	55.1
629.324	55.13
629.657	55.14
629.99	55.16
630.323	55.17
630.656	55.18
630.989	55.19
631.322	55.19
631.655	55.21
631.987	55.22
632.32	55.23
632.653	55.24
632.986	55.25
633.318	55.26
633.651	55.29
633.984	55.31
634.316	55.31
634.649	55.32
634.981	55.32
635.313	55.33
635.646	55.34
635.978	55.34
636.31	55.36
636.643	55.37
636.975	55.39
637.307	55.42
637.639	55.44
637.971	55.46
638.303	55.48
638.635	55.49
638.967	55.5
639.299	55.51
639.631	55.53
639.963	55.56
640.295	55.56
640.626	55.58
640.958	55.6
641.29	55.61
641.621	55.61
641.953	55.63
642.285	55.67
642.616	55.7
642.948	55.71
643.279	55.74
643.61	55.75
643.942	55.78
644.273	55.79
644.604	55.82
644.936	55.83
645.267	55.86
645.598	55.87
645.929	55.9
646.26	55.92
646.591	55.94
646.922	55.97
647.253	55.99
647.584	56
647.915	56.02
648.245	56.05
648.576	56.09
648.907	56.13
649.238	56.14
649.568	56.14
649.899	56.16
650.229	56.18
650.56	56.18
650.89	56.21
651.221	56.22
651.551	56.24
651.882	56.26
652.212	56.28
652.542	56.31
652.872	56.33
653.203	56.37
653.533	56.39
653.863	56.41
654.193	56.43
654.523	56.44
654.853	56.45
655.183	56.48
655.513	56.5
655.843	56.51
656.172	56.52
656.502	56.54
656.832	56.53
657.162	56.55
657.491	56.57
657.821	56.58
658.15	56.6
658.48	56.62
658.809	56.61
659.139	56.63
659.468	56.63
659.798	56.63
660.127	56.63
660.456	56.64
660.785	56.65
661.115	56.67
661.444	56.69
661.773	56.7
662.102	56.69
662.431	56.69
662.76	56.73
663.089	56.75
663.418	56.76
663.747	56.77
664.076	56.79
664.404	56.81
664.733	56.82
665.062	56.83
665.39	56.84
665.719	56.85
666.048	56.87
666.376	56.86
666.705	56.86
667.033	56.87
667.362	56.89
667.69	56.9
668.018	56.91
668.347	56.92
668.675	56.92
669.003	56.92
669.331	56.93
669.659	56.94
669.987	56.95
670.315	56.98
