Data from UWBM50074_Reflection_00007.txt Node
Date: Sun May 02 12:35:16 EDT 2021
User: vgr7
Spectrometer: USB2G7710
Scans to average: 10
Trigger mode: 4
Integration Time (sec): 1.000000E-1
Electric dark correction enabled: true
Boxcar width: 10
XAxis mode: Wavelengths
Number of Pixels in Spectrum: 2048
>>>>>Begin Spectral Data<<<<<
177.721	161.29
178.105	418.18
178.488	-616.39
178.871	137.74
179.254	296
179.636	31.54
180.019	71.76
180.402	205.26
180.785	23.37
181.168	-41.73
181.55	48.82
181.933	98.46
182.316	65.6
182.698	220.22
183.081	166.4
183.463	-301.27
183.846	-42.22
184.228	-55.96
184.611	-27.72
184.993	-12.52
185.376	-1.69
185.758	-4.73
186.14	-6.95
186.522	-4.4
186.904	-15.71
187.287	-9.55
187.669	-13.71
188.051	-12.28
188.433	-5.85
188.815	-4.4
189.197	-2.63
189.579	-4.53
189.961	0.85
190.342	2.06
190.724	8.56
191.106	9.34
191.488	12.82
191.869	11.84
192.251	14.04
192.633	14.76
193.014	13.02
193.396	13.03
193.777	13.68
194.159	18.26
194.54	14.56
194.922	16.82
195.303	13.97
195.684	14.37
196.065	14.02
196.447	14
196.828	14.95
197.209	15.86
197.59	16.04
197.971	14.16
198.352	15.22
198.733	16.89
199.114	15.68
199.495	14.61
199.876	14.77
200.257	16.52
200.638	17.47
201.018	18.77
201.399	17.84
201.78	16.26
202.16	14.35
202.541	14.99
202.922	13.23
203.302	15.68
203.683	16.69
204.063	15.76
204.444	13.87
204.824	14.21
205.204	14.8
205.585	14.03
205.965	13.53
206.345	11.21
206.725	5.89
207.106	9.01
207.486	8.87
207.866	8.81
208.246	5.05
208.626	5.09
209.006	4.15
209.386	3.63
209.766	4.73
210.145	5.51
210.525	4.88
210.905	6.28
211.285	5.38
211.664	5
212.044	6.21
212.424	7.16
212.803	6.27
213.183	8.11
213.562	7.61
213.942	7.45
214.321	8.65
214.701	8.65
215.08	5.97
215.459	4.84
215.838	5.14
216.218	8.03
216.597	7.78
216.976	9.92
217.355	10.26
217.734	11.24
218.113	9.64
218.492	9.96
218.871	11.37
219.25	11.98
219.629	11.89
220.008	11.6
220.387	10.79
220.766	9.29
221.144	8.95
221.523	8.89
221.902	10.35
222.28	12.75
222.659	14.31
223.037	15.85
223.416	17.39
223.794	15.94
224.173	13.95
224.551	14.62
224.929	11.83
225.308	12.56
225.686	12.19
226.064	12.64
226.442	12.62
226.821	12.25
227.199	10.9
227.577	9.96
227.955	9.51
228.333	9.8
228.711	9.48
229.089	8.93
229.467	9.04
229.845	8.83
230.222	8.66
230.6	8.65
230.978	8.59
231.356	8.05
231.733	7.88
232.111	8.2
232.488	7.79
232.866	7.79
233.243	7.3
233.621	7.33
233.998	7.27
234.376	7.64
234.753	7.41
235.13	7.41
235.508	8.04
235.885	8.1
236.262	8.24
236.639	8.4
237.016	8.33
237.393	7.9
237.77	7.55
238.147	7.3
238.524	7.1
238.901	6.68
239.278	6.38
239.655	6.35
240.032	6.17
240.409	6.02
240.785	5.88
241.162	5.85
241.539	5.82
241.915	5.67
242.292	5.62
242.668	5.49
243.045	5.4
243.421	5.23
243.798	5.14
244.174	4.98
244.551	4.85
244.927	4.71
245.303	4.68
245.679	4.63
246.056	4.51
246.432	4.46
246.808	4.5
247.184	4.49
247.56	4.42
247.936	4.45
248.312	4.49
248.688	4.52
249.064	4.46
249.44	4.43
249.815	4.42
250.191	4.33
250.567	4.33
250.943	4.35
251.318	4.37
251.694	4.32
252.069	4.26
252.445	4.33
252.82	4.34
253.196	4.38
253.571	4.42
253.947	4.5
254.322	4.48
254.697	4.46
255.073	4.38
255.448	4.37
255.823	4.23
256.198	4.11
256.573	4.04
256.948	3.98
257.323	3.94
257.698	3.94
258.073	3.94
258.448	3.93
258.823	3.9
259.198	3.86
259.573	3.86
259.948	3.92
260.322	3.86
260.697	3.89
261.072	3.86
261.446	3.82
261.821	3.8
262.195	3.76
262.57	3.71
262.944	3.73
263.319	3.72
263.693	3.76
264.067	3.77
264.442	3.78
264.816	3.82
265.19	3.82
265.564	3.77
265.938	3.75
266.313	3.73
266.687	3.69
267.061	3.67
267.435	3.67
267.809	3.62
268.183	3.63
268.556	3.66
268.93	3.66
269.304	3.66
269.678	3.63
270.051	3.65
270.425	3.66
270.799	3.67
271.172	3.65
271.546	3.65
271.919	3.7
272.293	3.68
272.666	3.68
273.04	3.69
273.413	3.68
273.787	3.68
274.16	3.69
274.533	3.72
274.906	3.71
275.279	3.72
275.653	3.72
276.026	3.69
276.399	3.66
276.772	3.66
277.145	3.68
277.518	3.71
277.891	3.71
278.263	3.72
278.636	3.74
279.009	3.77
279.382	3.73
279.755	3.69
280.127	3.73
280.5	3.7
280.872	3.67
281.245	3.73
281.617	3.72
281.99	3.72
282.362	3.72
282.735	3.71
283.107	3.69
283.479	3.71
283.852	3.7
284.224	3.7
284.596	3.69
284.968	3.69
285.34	3.69
285.713	3.74
286.085	3.72
286.457	3.7
286.829	3.71
287.201	3.74
287.572	3.75
287.944	3.74
288.316	3.78
288.688	3.8
289.06	3.8
289.431	3.83
289.803	3.83
290.175	3.85
290.546	3.88
290.918	3.89
291.289	3.89
291.661	3.93
292.032	3.94
292.403	3.96
292.775	3.95
293.146	3.93
293.517	3.91
293.889	3.92
294.26	3.94
294.631	3.95
295.002	3.96
295.373	4
295.744	4.03
296.115	4.03
296.486	4.04
296.857	4.06
297.228	4.08
297.599	4.13
297.97	4.13
298.34	4.14
298.711	4.18
299.082	4.19
299.452	4.2
299.823	4.23
300.194	4.26
300.564	4.29
300.935	4.35
301.305	4.39
301.676	4.43
302.046	4.44
302.416	4.47
302.787	4.49
303.157	4.51
303.527	4.54
303.897	4.58
304.267	4.62
304.637	4.66
305.008	4.69
305.378	4.7
305.748	4.75
306.117	4.79
306.487	4.8
306.857	4.84
307.227	4.88
307.597	4.91
307.967	4.95
308.336	5
308.706	5.03
309.076	5.05
309.445	5.08
309.815	5.12
310.184	5.16
310.554	5.21
310.923	5.2
311.293	5.24
311.662	5.26
312.031	5.26
312.401	5.29
312.77	5.31
313.139	5.35
313.508	5.39
313.877	5.41
314.246	5.46
314.616	5.5
314.985	5.54
315.353	5.59
315.722	5.63
316.091	5.66
316.46	5.72
316.829	5.78
317.198	5.84
317.567	5.88
317.935	5.92
318.304	5.94
318.672	6.01
319.041	6.05
319.41	6.07
319.778	6.16
320.147	6.2
320.515	6.24
320.883	6.29
321.252	6.34
321.62	6.36
321.988	6.4
322.357	6.46
322.725	6.51
323.093	6.53
323.461	6.56
323.829	6.61
324.197	6.62
324.565	6.64
324.933	6.68
325.301	6.72
325.669	6.75
326.037	6.78
326.405	6.84
326.772	6.87
327.14	6.9
327.508	6.91
327.875	6.96
328.243	7
328.61	7.03
328.978	7.08
329.346	7.11
329.713	7.14
330.08	7.18
330.448	7.22
330.815	7.26
331.182	7.3
331.55	7.32
331.917	7.34
332.284	7.38
332.651	7.41
333.018	7.44
333.385	7.45
333.752	7.48
334.119	7.47
334.486	7.48
334.853	7.51
335.22	7.53
335.587	7.52
335.954	7.56
336.32	7.57
336.687	7.57
337.054	7.6
337.42	7.63
337.787	7.64
338.153	7.67
338.52	7.68
338.886	7.72
339.253	7.73
339.619	7.75
339.986	7.78
340.352	7.79
340.718	7.8
341.084	7.82
341.451	7.84
341.817	7.86
342.183	7.9
342.549	7.91
342.915	7.93
343.281	7.97
343.647	7.98
344.013	8
344.379	8.03
344.745	8.06
345.11	8.06
345.476	8.09
345.842	8.1
346.208	8.11
346.573	8.08
346.939	8.12
347.304	8.13
347.67	8.12
348.035	8.14
348.401	8.15
348.766	8.15
349.132	8.19
349.497	8.21
349.862	8.2
350.228	8.23
350.593	8.25
350.958	8.24
351.323	8.24
351.688	8.26
352.053	8.25
352.418	8.27
352.783	8.28
353.148	8.27
353.513	8.27
353.878	8.29
354.243	8.32
354.608	8.3
354.972	8.3
355.337	8.31
355.702	8.31
356.066	8.31
356.431	8.3
356.795	8.28
357.16	8.26
357.524	8.26
357.889	8.22
358.253	8.2
358.618	8.2
358.982	8.19
359.346	8.16
359.71	8.13
360.075	8.09
360.439	8.07
360.803	8.04
361.167	8.01
361.531	7.98
361.895	7.96
362.259	7.94
362.623	7.92
362.987	7.89
363.351	7.87
363.714	7.85
364.078	7.82
364.442	7.79
364.806	7.75
365.169	7.74
365.533	7.72
365.896	7.69
366.26	7.65
366.623	7.61
366.987	7.56
367.35	7.55
367.714	7.53
368.077	7.49
368.44	7.46
368.803	7.43
369.167	7.39
369.53	7.36
369.893	7.33
370.256	7.29
370.619	7.25
370.982	7.2
371.345	7.16
371.708	7.13
372.071	7.09
372.434	7.06
372.797	6.99
373.159	6.96
373.522	6.93
373.885	6.87
374.247	6.83
374.61	6.79
374.973	6.74
375.335	6.68
375.698	6.64
376.06	6.59
376.423	6.54
376.785	6.51
377.147	6.46
377.51	6.41
377.872	6.35
378.234	6.31
378.596	6.28
378.958	6.24
379.321	6.2
379.683	6.16
380.045	6.11
380.407	6.07
380.769	6.02
381.13	5.97
381.492	5.94
381.854	5.91
382.216	5.88
382.578	5.84
382.939	5.82
383.301	5.78
383.663	5.75
384.024	5.73
384.386	5.69
384.747	5.67
385.109	5.64
385.47	5.61
385.832	5.59
386.193	5.56
386.554	5.53
386.916	5.51
387.277	5.49
387.638	5.48
387.999	5.46
388.36	5.43
388.721	5.41
389.082	5.39
389.443	5.35
389.804	5.32
390.165	5.3
390.526	5.28
390.887	5.25
391.248	5.23
391.609	5.21
391.969	5.19
392.33	5.16
392.691	5.13
393.051	5.11
393.412	5.08
393.772	5.06
394.133	5.04
394.493	5.01
394.854	4.99
395.214	4.95
395.574	4.93
395.935	4.9
396.295	4.87
396.655	4.84
397.015	4.81
397.376	4.77
397.736	4.74
398.096	4.71
398.456	4.69
398.816	4.66
399.176	4.64
399.535	4.62
399.895	4.6
400.255	4.57
400.615	4.56
400.975	4.54
401.334	4.52
401.694	4.5
402.054	4.49
402.413	4.47
402.773	4.46
403.132	4.45
403.492	4.43
403.851	4.42
404.211	4.42
404.57	4.42
404.929	4.42
405.288	4.4
405.648	4.4
406.007	4.39
406.366	4.39
406.725	4.37
407.084	4.36
407.443	4.36
407.802	4.35
408.161	4.34
408.52	4.34
408.879	4.33
409.238	4.32
409.596	4.32
409.955	4.31
410.314	4.31
410.673	4.29
411.031	4.29
411.39	4.29
411.748	4.29
412.107	4.28
412.465	4.27
412.824	4.27
413.182	4.27
413.54	4.26
413.899	4.26
414.257	4.26
414.615	4.26
414.974	4.25
415.332	4.24
415.69	4.25
416.048	4.25
416.406	4.28
416.764	4.3
417.122	4.33
417.48	4.37
417.838	4.41
418.195	4.47
418.553	4.51
418.911	4.55
419.269	4.6
419.626	4.64
419.984	4.7
420.342	4.73
420.699	4.77
421.057	4.81
421.414	4.85
421.772	4.88
422.129	4.91
422.486	4.93
422.844	4.95
423.201	4.94
423.558	4.92
423.915	4.87
424.273	4.83
424.63	4.77
424.987	4.7
425.344	4.63
425.701	4.56
426.058	4.51
426.415	4.46
426.772	4.39
427.128	4.34
427.485	4.26
427.842	4.21
428.199	4.16
428.555	4.1
428.912	4.03
429.269	3.99
429.625	3.95
429.982	3.91
430.338	3.88
430.695	3.88
431.051	3.88
431.407	3.89
431.764	3.91
432.12	3.93
432.476	3.97
432.832	3.99
433.189	4
433.545	4.01
433.901	4.01
434.257	4.02
434.613	4.02
434.969	4.04
435.325	4.06
435.681	4.08
436.036	4.11
436.392	4.14
436.748	4.19
437.104	4.22
437.459	4.27
437.815	4.31
438.171	4.35
438.526	4.39
438.882	4.42
439.237	4.46
439.593	4.48
439.948	4.5
440.304	4.52
440.659	4.53
441.014	4.57
441.369	4.6
441.725	4.63
442.08	4.68
442.435	4.72
442.79	4.77
443.145	4.82
443.5	4.84
443.855	4.88
444.21	4.88
444.565	4.88
444.92	4.88
445.275	4.88
445.629	4.87
445.984	4.86
446.339	4.84
446.693	4.8
447.048	4.79
447.403	4.77
447.757	4.74
448.112	4.72
448.466	4.67
448.82	4.62
449.175	4.57
449.529	4.51
449.883	4.43
450.238	4.35
450.592	4.28
450.946	4.21
451.3	4.14
451.654	4.09
452.008	4.04
452.362	3.98
452.716	3.93
453.07	3.88
453.424	3.85
453.778	3.83
454.132	3.82
454.486	3.82
454.839	3.83
455.193	3.86
455.547	3.91
455.9	3.96
456.254	4.02
456.607	4.08
456.961	4.15
457.314	4.22
457.668	4.28
458.021	4.32
458.375	4.37
458.728	4.39
459.081	4.41
459.434	4.42
459.787	4.43
460.141	4.41
460.494	4.4
460.847	4.38
461.2	4.37
461.553	4.37
461.906	4.36
462.259	4.35
462.611	4.32
462.964	4.29
463.317	4.25
463.67	4.21
464.022	4.17
464.375	4.13
464.728	4.08
465.08	4.04
465.433	4
465.785	3.98
466.138	3.97
466.49	3.95
466.843	3.97
467.195	3.98
467.547	4.01
467.899	4.05
468.252	4.09
468.604	4.11
468.956	4.12
469.308	4.15
469.66	4.16
470.012	4.17
470.364	4.19
470.716	4.2
471.068	4.2
471.42	4.21
471.772	4.21
472.123	4.22
472.475	4.23
472.827	4.23
473.178	4.24
473.53	4.24
473.882	4.24
474.233	4.25
474.585	4.26
474.936	4.26
475.288	4.25
475.639	4.25
475.99	4.25
476.342	4.26
476.693	4.26
477.044	4.27
477.395	4.29
477.746	4.33
478.097	4.39
478.448	4.5
478.8	4.66
479.15	4.86
479.501	5.1
479.852	5.37
480.203	5.65
480.554	5.94
480.905	6.24
481.255	6.55
481.606	6.86
481.957	7.17
482.307	7.48
482.658	7.78
483.009	8.05
483.359	8.31
483.709	8.54
484.06	8.78
484.41	9
484.761	9.21
485.111	9.4
485.461	9.56
485.811	9.65
486.162	9.68
486.512	9.67
486.862	9.62
487.212	9.53
487.562	9.42
487.912	9.29
488.262	9.14
488.612	8.99
488.961	8.82
489.311	8.63
489.661	8.44
490.011	8.25
490.36	8.06
490.71	7.86
491.06	7.66
491.409	7.46
491.759	7.26
492.108	7.06
492.458	6.87
492.807	6.69
493.157	6.52
493.506	6.36
493.855	6.21
494.204	6.06
494.554	5.92
494.903	5.8
495.252	5.67
495.601	5.54
495.95	5.41
496.299	5.3
496.648	5.18
496.997	5.07
497.346	4.98
497.695	4.91
498.043	4.86
498.392	4.84
498.741	4.83
499.09	4.83
499.438	4.84
499.787	4.85
500.135	4.87
500.484	4.9
500.832	4.94
501.181	4.97
501.529	5
501.878	5.05
502.226	5.09
502.574	5.15
502.923	5.21
503.271	5.28
503.619	5.38
503.967	5.48
504.315	5.59
504.663	5.72
505.011	5.85
505.359	6.01
505.707	6.15
506.055	6.29
506.403	6.44
506.751	6.6
507.098	6.77
507.446	6.93
507.794	7.09
508.141	7.25
508.489	7.41
508.837	7.57
509.184	7.73
509.531	7.9
509.879	8.06
510.226	8.23
510.574	8.4
510.921	8.57
511.268	8.73
511.616	8.9
511.963	9.08
512.31	9.28
512.657	9.49
513.004	9.73
513.351	9.97
513.698	10.24
514.045	10.53
514.392	10.82
514.739	11.14
515.086	11.48
515.432	11.84
515.779	12.21
516.126	12.56
516.473	12.92
516.819	13.25
517.166	13.57
517.512	13.86
517.859	14.14
518.205	14.39
518.552	14.63
518.898	14.87
519.245	15.09
519.591	15.3
519.937	15.53
520.283	15.79
520.629	16.08
520.976	16.4
521.322	16.73
521.668	17.1
522.014	17.5
522.36	17.91
522.706	18.41
523.052	19.06
523.398	19.89
523.743	20.88
524.089	22
524.435	23.22
524.781	24.52
525.126	25.87
525.472	27.27
525.817	28.7
526.163	30.11
526.509	31.49
526.854	32.8
527.199	33.98
527.545	35.01
527.89	35.93
528.235	36.81
528.581	37.64
528.926	38.42
529.271	39.15
529.616	39.82
529.961	40.38
530.306	40.77
530.651	40.99
530.996	41.03
531.341	40.97
531.686	40.78
532.031	40.48
532.376	40.06
532.721	39.56
533.065	39
533.41	38.42
533.755	37.85
534.099	37.33
534.444	36.89
534.788	36.52
535.133	36.23
535.477	35.95
535.822	35.76
536.166	35.68
536.51	35.73
536.855	35.9
537.199	36.17
537.543	36.52
537.887	36.95
538.231	37.45
538.576	37.97
538.92	38.54
539.264	39.14
539.608	39.77
539.951	40.33
540.295	40.81
540.639	41.21
540.983	41.58
541.327	41.91
541.671	42.24
542.014	42.53
542.358	42.78
542.701	42.99
543.045	43.07
543.389	43
543.732	42.76
544.075	42.38
544.419	41.86
544.762	41.2
545.105	40.41
545.449	39.64
545.792	38.83
546.135	38.11
546.478	37.48
546.821	36.88
547.165	36.39
547.508	36.04
547.851	35.81
548.194	35.63
548.536	35.49
548.879	35.39
549.222	35.36
549.565	35.38
549.908	35.44
550.25	35.55
550.593	35.71
550.936	35.91
551.278	36.16
551.621	36.48
551.963	36.89
552.306	37.4
552.648	37.82
552.991	38.25
553.333	38.56
553.675	38.75
554.017	38.94
554.36	39.14
554.702	39.32
555.044	39.49
555.386	39.66
555.728	39.84
556.07	40.01
556.412	40.18
556.754	40.35
557.096	40.5
557.438	40.67
557.78	40.85
558.121	41.02
558.463	41.18
558.805	41.35
559.147	41.54
559.488	41.7
559.83	41.88
560.171	42.08
560.513	42.25
560.854	42.43
561.196	42.6
561.537	42.78
561.878	42.96
562.22	43.15
562.561	43.32
562.902	43.5
563.243	43.66
563.584	43.83
563.925	43.99
564.266	44.15
564.607	44.31
564.948	44.45
565.289	44.6
565.63	44.75
565.971	44.88
566.312	45.01
566.653	45.15
566.993	45.28
567.334	45.39
567.675	45.52
568.015	45.66
568.356	45.79
568.696	45.92
569.037	46.05
569.377	46.17
569.718	46.3
570.058	46.43
570.398	46.56
570.739	46.66
571.079	46.77
571.419	46.87
571.759	46.98
572.099	47.07
572.439	47.18
572.779	47.27
573.119	47.37
573.459	47.44
573.799	47.53
574.139	47.61
574.479	47.7
574.819	47.77
575.158	47.83
575.498	47.88
575.838	47.92
576.177	47.98
576.517	48.03
576.856	48.07
577.196	48.11
577.535	48.15
577.875	48.21
578.214	48.26
578.553	48.31
578.893	48.34
579.232	48.39
579.571	48.43
579.91	48.49
580.25	48.54
580.589	48.59
580.928	48.65
581.267	48.7
581.606	48.75
581.945	48.8
582.283	48.85
582.622	48.93
582.961	49.02
583.3	49.07
583.639	49.17
583.977	49.23
584.316	49.32
584.654	49.39
584.993	49.44
585.332	49.53
585.67	49.62
586.008	49.72
586.347	49.81
586.685	49.9
587.024	49.97
587.362	50.07
587.7	50.15
588.038	50.22
588.376	50.28
588.715	50.36
589.053	50.44
589.391	50.52
589.729	50.6
590.067	50.66
590.404	50.74
590.742	50.78
591.08	50.86
591.418	50.91
591.756	50.99
592.093	51.08
592.431	51.17
592.769	51.26
593.106	51.32
593.444	51.39
593.781	51.45
594.119	51.52
594.456	51.57
594.793	51.65
595.131	51.71
595.468	51.78
595.805	51.85
596.143	51.88
596.48	51.93
596.817	51.96
597.154	52
597.491	52.03
597.828	52.09
598.165	52.13
598.502	52.17
598.839	52.22
599.176	52.27
599.512	52.32
599.849	52.34
600.186	52.42
600.523	52.49
600.859	52.55
601.196	52.63
601.532	52.7
601.869	52.75
602.205	52.81
602.542	52.87
602.878	52.91
603.215	52.98
603.551	53.03
603.887	53.09
604.223	53.14
604.56	53.19
604.896	53.25
605.232	53.28
605.568	53.33
605.904	53.37
606.24	53.4
606.576	53.43
606.912	53.47
607.248	53.47
607.583	53.49
607.919	53.52
608.255	53.54
608.591	53.56
608.926	53.56
609.262	53.56
609.597	53.56
609.933	53.59
610.268	53.6
610.604	53.6
610.939	53.6
611.275	53.61
611.61	53.63
611.945	53.64
612.281	53.66
612.616	53.69
612.951	53.69
613.286	53.69
613.621	53.68
613.956	53.68
614.291	53.7
614.626	53.72
614.961	53.71
615.296	53.7
615.631	53.72
615.966	53.75
616.3	53.79
616.635	53.81
616.97	53.82
617.304	53.84
617.639	53.88
617.973	53.94
618.308	53.99
618.642	54
618.977	54.02
619.311	54.05
619.646	54.04
619.98	54.09
620.314	54.16
620.648	54.2
620.983	54.24
621.317	54.27
621.651	54.3
621.985	54.35
622.319	54.39
622.653	54.45
622.987	54.49
623.321	54.53
623.655	54.58
623.988	54.64
624.322	54.68
624.656	54.69
624.99	54.71
625.323	54.71
625.657	54.74
625.99	54.78
626.324	54.81
626.657	54.86
626.991	54.88
627.324	54.88
627.658	54.91
627.991	54.92
628.324	54.95
628.657	54.96
628.991	54.98
629.324	55.01
629.657	55.02
629.99	55.04
630.323	55.07
630.656	55.1
630.989	55.11
631.322	55.12
631.655	55.16
631.987	55.19
632.32	55.22
632.653	55.24
632.986	55.25
633.318	55.26
633.651	55.27
633.984	55.28
634.316	55.32
634.649	55.35
634.981	55.38
635.313	55.37
635.646	55.39
635.978	55.4
636.31	55.41
636.643	55.42
636.975	55.42
637.307	55.42
637.639	55.42
637.971	55.46
638.303	55.47
638.635	55.5
638.967	55.5
639.299	55.53
639.631	55.57
639.963	55.56
640.295	55.57
640.626	55.6
640.958	55.61
641.29	55.61
641.621	55.61
641.953	55.65
642.285	55.71
642.616	55.72
642.948	55.75
643.279	55.78
643.61	55.82
643.942	55.82
644.273	55.84
644.604	55.87
644.936	55.88
645.267	55.92
645.598	55.94
645.929	55.96
646.26	55.99
646.591	56
646.922	56.08
647.253	56.11
647.584	56.12
647.915	56.15
648.245	56.17
648.576	56.2
648.907	56.17
649.238	56.16
649.568	56.2
649.899	56.23
650.229	56.24
650.56	56.25
650.89	56.3
651.221	56.34
651.551	56.34
651.882	56.38
652.212	56.38
652.542	56.38
652.872	56.4
653.203	56.41
653.533	56.4
653.863	56.41
654.193	56.43
654.523	56.46
654.853	56.47
655.183	56.48
655.513	56.5
655.843	56.56
656.172	56.58
656.502	56.58
656.832	56.6
657.162	56.62
657.491	56.65
657.821	56.65
658.15	56.65
658.48	56.69
658.809	56.69
659.139	56.73
659.468	56.75
659.798	56.78
660.127	56.79
660.456	56.82
660.785	56.86
661.115	56.86
661.444	56.86
661.773	56.86
662.102	56.89
662.431	56.9
662.76	56.92
663.089	56.93
663.418	56.96
663.747	56.96
664.076	56.96
664.404	56.97
664.733	57.01
665.062	57.05
665.39	57.03
665.719	57.05
666.048	57.08
666.376	57.1
666.705	57.1
667.033	57.13
667.362	57.17
667.69	57.14
668.018	57.19
668.347	57.2
668.675	57.25
669.003	57.26
669.331	57.25
669.659	57.25
669.987	57.3
670.315	57.34
