Data from UWBM53665_Reflection_00016.txt Node
Date: Sun May 02 13:14:57 EDT 2021
User: vgr7
Spectrometer: USB2G7710
Scans to average: 10
Trigger mode: 4
Integration Time (sec): 1.000000E-1
Electric dark correction enabled: true
Boxcar width: 20
XAxis mode: Wavelengths
Number of Pixels in Spectrum: 2048
>>>>>Begin Spectral Data<<<<<
177.721	99.46
178.105	98.86
178.488	98.57
178.871	98.5
179.254	96.43
179.636	94.08
180.019	91.38
180.402	89.77
180.785	86.37
181.168	83.63
181.55	80.21
181.933	118.76
182.316	119.51
182.698	120.04
183.081	121.77
183.463	122.24
183.846	122.68
184.228	123.06
184.611	124.3
184.993	126.33
185.376	127.89
185.758	-85.78
186.14	-40.2
186.522	-7.6
186.904	7.42
187.287	19.14
187.669	24.01
188.051	25.12
188.433	28.64
188.815	26.18
189.197	26.86
189.579	26.67
189.961	25.95
190.342	22.21
190.724	23.79
191.106	23.76
191.488	22.48
191.869	17.41
192.251	16.79
192.633	14.76
193.014	13.66
193.396	14.17
193.777	22.55
194.159	22.36
194.54	18.89
194.922	20.02
195.303	22.49
195.684	24.08
196.065	23.56
196.447	22.61
196.828	21.31
197.209	22.8
197.59	14.14
197.971	13.14
198.352	14.58
198.733	16.07
199.114	14.25
199.495	14.01
199.876	15.6
200.257	13.69
200.638	12.06
201.018	6.88
201.399	4.47
201.78	3.86
202.16	2.49
202.541	4.35
202.922	5.68
203.302	2.14
203.683	1.99
204.063	1.02
204.444	2.4
204.824	3.34
205.204	7.54
205.585	16.07
205.965	16.11
206.345	17
206.725	11.05
207.106	12.21
207.486	12.73
207.866	13.52
208.246	13.86
208.626	15.98
209.006	21.02
209.386	15.99
209.766	16.28
210.145	16.83
210.525	16.18
210.905	15.58
211.285	15.61
211.664	15.13
212.044	16.45
212.424	17.65
212.803	12.26
213.183	15.1
213.562	14.57
213.942	14.01
214.321	10.66
214.701	9.33
215.08	10.21
215.459	8.83
215.838	8.53
216.218	9.01
216.597	8.36
216.976	4.99
217.355	5.44
217.734	5.21
218.113	5.12
218.492	4.85
218.871	5.44
219.25	5.24
219.629	4.63
220.008	3.82
220.387	4.58
220.766	3.33
221.144	2.33
221.523	3.15
221.902	4.26
222.28	5.58
222.659	6.8
223.037	6.82
223.416	7.47
223.794	8.74
224.173	8.4
224.551	7.56
224.929	8.14
225.308	8.93
225.686	8.43
226.064	8.72
226.442	8.85
226.821	8.47
227.199	8.23
227.577	7.67
227.955	7.18
228.333	7.49
228.711	7.44
229.089	7.67
229.467	7.24
229.845	8.15
230.222	8.5
230.6	9.02
230.978	9
231.356	8.4
231.733	8.21
232.111	8.2
232.488	8.09
232.866	7.88
233.243	7.43
233.621	7.4
233.998	6.98
234.376	6.99
234.753	7.06
235.13	7.02
235.508	7.49
235.885	7.28
236.262	7.28
236.639	7.33
237.016	7.33
237.393	7.16
237.77	6.97
238.147	6.79
238.524	6.81
238.901	6.78
239.278	6.74
239.655	6.62
240.032	6.51
240.409	6.47
240.785	6.35
241.162	6.45
241.539	6.34
241.915	6.33
242.292	6.35
242.668	6.28
243.045	6.28
243.421	6.14
243.798	6.07
244.174	6.04
244.551	6.03
244.927	5.86
245.303	5.8
245.679	5.79
246.056	5.71
246.432	5.7
246.808	5.5
247.184	5.49
247.56	5.44
247.936	5.47
248.312	5.48
248.688	5.58
249.064	5.54
249.44	5.55
249.815	5.54
250.191	5.48
250.567	5.48
250.943	5.57
251.318	5.56
251.694	5.49
252.069	5.43
252.445	5.38
252.82	5.48
253.196	5.48
253.571	5.45
253.947	5.52
254.322	5.47
254.697	5.59
255.073	5.59
255.448	5.59
255.823	5.55
256.198	5.51
256.573	5.34
256.948	5.34
257.323	5.34
257.698	5.25
258.073	5.25
258.448	5.11
258.823	5.1
259.198	5.09
259.573	5.12
259.948	5.14
260.322	5.12
260.697	5.11
261.072	5.1
261.446	5.07
261.821	5.02
262.195	4.98
262.57	4.96
262.944	4.94
263.319	4.91
263.693	4.92
264.067	4.92
264.442	5.02
264.816	5
265.19	4.96
265.564	5.01
265.938	4.95
266.313	4.97
266.687	4.94
267.061	4.92
267.435	4.91
267.809	4.92
268.183	4.89
268.556	4.91
268.93	4.9
269.304	4.9
269.678	4.86
270.051	4.83
270.425	4.81
270.799	4.81
271.172	4.82
271.546	4.8
271.919	4.79
272.293	4.75
272.666	4.77
273.04	4.79
273.413	4.73
273.787	4.73
274.16	4.73
274.533	4.77
274.906	4.73
275.279	4.72
275.653	4.69
276.026	4.69
276.399	4.66
276.772	4.66
277.145	4.7
277.518	4.73
277.891	4.74
278.263	4.78
278.636	4.79
279.009	4.81
279.382	4.78
279.755	4.73
280.127	4.74
280.5	4.77
280.872	4.76
281.245	4.9
281.617	4.93
281.99	4.95
282.362	4.99
282.735	4.98
283.107	4.98
283.479	5
283.852	5.02
284.224	5.04
284.596	5
284.968	4.91
285.34	4.91
285.713	4.91
286.085	4.87
286.457	4.88
286.829	4.88
287.201	4.91
287.572	4.97
287.944	5
288.316	5.05
288.688	5.1
289.06	5.12
289.431	5.14
289.803	5.17
290.175	5.21
290.546	5.26
290.918	5.3
291.289	5.29
291.661	5.35
292.032	5.35
292.403	5.39
292.775	5.51
293.146	5.55
293.517	5.6
293.889	5.7
294.26	5.71
294.631	5.77
295.002	5.83
295.373	5.92
295.744	5.93
296.115	5.97
296.486	5.94
296.857	5.98
297.228	6.03
297.599	6.07
297.97	6.1
298.34	6.16
298.711	6.14
299.082	6.18
299.452	6.25
299.823	6.34
300.194	6.39
300.564	6.42
300.935	6.48
301.305	6.5
301.676	6.53
302.046	6.58
302.416	6.63
302.787	6.7
303.157	6.68
303.527	6.74
303.897	6.8
304.267	6.87
304.637	6.95
305.008	7.03
305.378	7.1
305.748	7.16
306.117	7.28
306.487	7.41
306.857	7.52
307.227	7.58
307.597	7.64
307.967	7.71
308.336	7.77
308.706	7.85
309.076	7.92
309.445	7.98
309.815	7.95
310.184	8.01
310.554	8.01
310.923	8.12
311.293	8.19
311.662	8.27
312.031	8.32
312.401	8.37
312.77	8.4
313.139	8.48
313.508	8.56
313.877	8.58
314.246	8.65
314.616	8.69
314.985	8.69
315.353	8.77
315.722	8.85
316.091	8.93
316.46	9
316.829	9.09
317.198	9.17
317.567	9.37
317.935	9.44
318.304	9.59
318.672	9.69
319.041	9.78
319.41	9.89
319.778	9.98
320.147	10.08
320.515	10.16
320.883	10.23
321.252	10.26
321.62	10.36
321.988	10.42
322.357	10.48
322.725	10.6
323.093	10.66
323.461	10.71
323.829	10.76
324.197	10.81
324.565	10.85
324.933	10.91
325.301	10.95
325.669	11.01
326.037	11.04
326.405	11.05
326.772	11.07
327.14	11.1
327.508	11.14
327.875	11.18
328.243	11.21
328.61	11.22
328.978	11.27
329.346	11.3
329.713	11.31
330.08	11.35
330.448	11.38
330.815	11.37
331.182	11.4
331.55	11.42
331.917	11.47
332.284	11.51
332.651	11.55
333.018	11.57
333.385	11.59
333.752	11.64
334.119	11.67
334.486	11.69
334.853	11.7
335.22	11.72
335.587	11.73
335.954	11.75
336.32	11.79
336.687	11.82
337.054	11.83
337.42	11.87
337.787	11.88
338.153	11.91
338.52	11.95
338.886	11.98
339.253	11.99
339.619	12
339.986	11.98
340.352	11.98
340.718	12
341.084	12.02
341.451	12.02
341.817	12.02
342.183	12.02
342.549	12.05
342.915	12.05
343.281	12.08
343.647	12.09
344.013	12.12
344.379	12.12
344.745	12.12
345.11	12.12
345.476	12.12
345.842	12.13
346.208	12.1
346.573	12.09
346.939	12.1
347.304	12.08
347.67	12.08
348.035	12.09
348.401	12.06
348.766	12.06
349.132	12.04
349.497	12.05
349.862	12.03
350.228	12.04
350.593	12.02
350.958	11.99
351.323	11.96
351.688	11.95
352.053	11.92
352.418	11.9
352.783	11.86
353.148	11.82
353.513	11.79
353.878	11.77
354.243	11.73
354.608	11.69
354.972	11.67
355.337	11.63
355.702	11.57
356.066	11.54
356.431	11.49
356.795	11.45
357.16	11.4
357.524	11.35
357.889	11.31
358.253	11.27
358.618	11.23
358.982	11.19
359.346	11.15
359.71	11.12
360.075	11.08
360.439	11.05
360.803	11
361.167	10.95
361.531	10.93
361.895	10.88
362.259	10.84
362.623	10.79
362.987	10.74
363.351	10.7
363.714	10.65
364.078	10.6
364.442	10.55
364.806	10.5
365.169	10.42
365.533	10.37
365.896	10.31
366.26	10.24
366.623	10.17
366.987	10.1
367.35	10.04
367.714	9.98
368.077	9.92
368.44	9.84
368.803	9.76
369.167	9.69
369.53	9.62
369.893	9.54
370.256	9.45
370.619	9.38
370.982	9.29
371.345	9.2
371.708	9.12
372.071	9.04
372.434	8.96
372.797	8.9
373.159	8.83
373.522	8.75
373.885	8.67
374.247	8.58
374.61	8.5
374.973	8.41
375.335	8.32
375.698	8.25
376.06	8.17
376.423	8.08
376.785	8
377.147	7.92
377.51	7.86
377.872	7.78
378.234	7.7
378.596	7.65
378.958	7.59
379.321	7.52
379.683	7.45
380.045	7.38
380.407	7.31
380.769	7.24
381.13	7.19
381.492	7.14
381.854	7.08
382.216	7.02
382.578	6.96
382.939	6.92
383.301	6.86
383.663	6.81
384.024	6.75
384.386	6.7
384.747	6.65
385.109	6.59
385.47	6.54
385.832	6.5
386.193	6.44
386.554	6.39
386.916	6.35
387.277	6.3
387.638	6.27
387.999	6.23
388.36	6.19
388.721	6.15
389.082	6.11
389.443	6.07
389.804	6.04
390.165	6.01
390.526	5.97
390.887	5.93
391.248	5.89
391.609	5.86
391.969	5.82
392.33	5.79
392.691	5.76
393.051	5.72
393.412	5.67
393.772	5.64
394.133	5.61
394.493	5.56
394.854	5.53
395.214	5.49
395.574	5.44
395.935	5.4
396.295	5.36
396.655	5.33
397.015	5.29
397.376	5.25
397.736	5.22
398.096	5.19
398.456	5.15
398.816	5.13
399.176	5.08
399.535	5.05
399.895	5.02
400.255	4.99
400.615	4.96
400.975	4.93
401.334	4.9
401.694	4.87
402.054	4.84
402.413	4.8
402.773	4.77
403.132	4.76
403.492	4.73
403.851	4.71
404.211	4.69
404.57	4.68
404.929	4.67
405.288	4.65
405.648	4.64
406.007	4.62
406.366	4.61
406.725	4.61
407.084	4.59
407.443	4.57
407.802	4.55
408.161	4.54
408.52	4.52
408.879	4.51
409.238	4.5
409.596	4.48
409.955	4.49
410.314	4.48
410.673	4.46
411.031	4.45
411.39	4.45
411.748	4.44
412.107	4.43
412.465	4.43
412.824	4.44
413.182	4.44
413.54	4.45
413.899	4.46
414.257	4.49
414.615	4.52
414.974	4.54
415.332	4.57
415.69	4.6
416.048	4.62
416.406	4.65
416.764	4.67
417.122	4.69
417.48	4.71
417.838	4.73
418.195	4.75
418.553	4.76
418.911	4.76
419.269	4.76
419.626	4.74
419.984	4.73
420.342	4.7
420.699	4.68
421.057	4.65
421.414	4.63
421.772	4.61
422.129	4.59
422.486	4.57
422.844	4.56
423.201	4.56
423.558	4.55
423.915	4.54
424.273	4.53
424.63	4.52
424.987	4.51
425.344	4.5
425.701	4.5
426.058	4.49
426.415	4.48
426.772	4.47
427.128	4.46
427.485	4.44
427.842	4.43
428.199	4.41
428.555	4.39
428.912	4.36
429.269	4.33
429.625	4.3
429.982	4.27
430.338	4.24
430.695	4.21
431.051	4.17
431.407	4.15
431.764	4.13
432.12	4.1
432.476	4.09
432.832	4.07
433.189	4.08
433.545	4.08
433.901	4.09
434.257	4.11
434.613	4.13
434.969	4.16
435.325	4.18
435.681	4.22
436.036	4.24
436.392	4.26
436.748	4.27
437.104	4.27
437.459	4.29
437.815	4.3
438.171	4.32
438.526	4.34
438.882	4.37
439.237	4.4
439.593	4.43
439.948	4.46
440.304	4.5
440.659	4.52
441.014	4.54
441.369	4.56
441.725	4.58
442.08	4.59
442.435	4.6
442.79	4.61
443.145	4.6
443.5	4.61
443.855	4.6
444.21	4.6
444.565	4.59
444.92	4.58
445.275	4.57
445.629	4.56
445.984	4.55
446.339	4.53
446.693	4.53
447.048	4.51
447.403	4.49
447.757	4.46
448.112	4.44
448.466	4.41
448.82	4.39
449.175	4.36
449.529	4.34
449.883	4.32
450.238	4.28
450.592	4.28
450.946	4.26
451.3	4.26
451.654	4.27
452.008	4.26
452.362	4.27
452.716	4.27
453.07	4.27
453.424	4.26
453.778	4.25
454.132	4.23
454.486	4.22
454.839	4.2
455.193	4.18
455.547	4.17
455.9	4.13
456.254	4.11
456.607	4.08
456.961	4.06
457.314	4.04
457.668	4.03
458.021	4.03
458.375	4.02
458.728	4.02
459.081	4.02
459.434	4.03
459.787	4.04
460.141	4.05
460.494	4.05
460.847	4.06
461.2	4.07
461.553	4.08
461.906	4.09
462.259	4.1
462.611	4.11
462.964	4.12
463.317	4.13
463.67	4.14
464.022	4.15
464.375	4.15
464.728	4.16
465.08	4.16
465.433	4.17
465.785	4.17
466.138	4.16
466.49	4.16
466.843	4.14
467.195	4.13
467.547	4.12
467.899	4.1
468.252	4.08
468.604	4.06
468.956	4.05
469.308	4.04
469.66	4.04
470.012	4.04
470.364	4.05
470.716	4.06
471.068	4.08
471.42	4.11
471.772	4.13
472.123	4.15
472.475	4.16
472.827	4.18
473.178	4.19
473.53	4.2
473.882	4.22
474.233	4.25
474.585	4.29
474.936	4.35
475.288	4.43
475.639	4.54
475.99	4.68
476.342	4.83
476.693	4.98
477.044	5.14
477.395	5.31
477.746	5.48
478.097	5.64
478.448	5.82
478.8	5.99
479.15	6.14
479.501	6.28
479.852	6.41
480.203	6.53
480.554	6.64
480.905	6.75
481.255	6.86
481.606	6.96
481.957	7.04
482.307	7.13
482.658	7.21
483.009	7.3
483.359	7.37
483.709	7.45
484.06	7.52
484.41	7.6
484.761	7.66
485.111	7.73
485.461	7.79
485.811	7.85
486.162	7.91
486.512	7.96
486.862	7.99
487.212	8.02
487.562	8.05
487.912	8.06
488.262	8.06
488.612	8.06
488.961	8.04
489.311	8.01
489.661	7.95
490.011	7.86
490.36	7.76
490.71	7.64
491.06	7.52
491.409	7.38
491.759	7.24
492.108	7.1
492.458	6.96
492.807	6.8
493.157	6.65
493.506	6.51
493.855	6.37
494.204	6.25
494.554	6.12
494.903	6.02
495.252	5.93
495.601	5.83
495.95	5.74
496.299	5.66
496.648	5.59
496.997	5.53
497.346	5.47
497.695	5.41
498.043	5.37
498.392	5.33
498.741	5.29
499.09	5.25
499.438	5.23
499.787	5.21
500.135	5.2
500.484	5.2
500.832	5.21
501.181	5.24
501.529	5.28
501.878	5.33
502.226	5.4
502.574	5.48
502.923	5.56
503.271	5.65
503.619	5.75
503.967	5.85
504.315	5.95
504.663	6.06
505.011	6.17
505.359	6.28
505.707	6.4
506.055	6.52
506.403	6.65
506.751	6.79
507.098	6.92
507.446	7.07
507.794	7.22
508.141	7.38
508.489	7.56
508.837	7.75
509.184	7.94
509.531	8.14
509.879	8.35
510.226	8.58
510.574	8.82
510.921	9.08
511.268	9.34
511.616	9.62
511.963	9.9
512.31	10.19
512.657	10.49
513.004	10.78
513.351	11.07
513.698	11.34
514.045	11.61
514.392	11.88
514.739	12.13
515.086	12.38
515.432	12.63
515.779	12.88
516.126	13.14
516.473	13.43
516.819	13.73
517.166	14.06
517.512	14.42
517.859	14.79
518.205	15.2
518.552	15.64
518.898	16.11
519.245	16.63
519.591	17.24
519.937	17.96
520.283	18.77
520.629	19.65
520.976	20.58
521.322	21.53
521.668	22.51
522.014	23.5
522.36	24.49
522.706	25.46
523.052	26.41
523.398	27.32
523.743	28.16
524.089	28.95
524.435	29.68
524.781	30.41
525.126	31.12
525.472	31.83
525.817	32.53
526.163	33.21
526.509	33.87
526.854	34.54
527.199	35.2
527.545	35.86
527.89	36.54
528.235	37.2
528.581	37.83
528.926	38.43
529.271	39.01
529.616	39.55
529.961	40.08
530.306	40.59
530.651	41.07
530.996	41.5
531.341	41.89
531.686	42.27
532.031	42.62
532.376	43.01
532.721	43.41
533.065	43.87
533.41	44.33
533.755	44.75
534.099	45.11
534.444	45.43
534.788	45.7
535.133	45.96
535.477	46.18
535.822	46.35
536.166	46.47
536.51	46.52
536.855	46.5
537.199	46.42
537.543	46.35
537.887	46.31
538.231	46.32
538.576	46.33
538.92	46.32
539.264	46.29
539.608	46.23
539.951	46.15
540.295	46.05
540.639	45.94
540.983	45.79
541.327	45.63
541.671	45.43
542.014	45.28
542.358	45.14
542.701	45.1
543.045	45.14
543.389	45.22
543.732	45.33
544.075	45.46
544.419	45.61
544.762	45.76
545.105	45.94
545.449	46.13
545.792	46.34
546.135	46.54
546.478	46.67
546.821	46.74
547.165	46.72
547.508	46.64
547.851	46.5
548.194	46.29
548.536	46.03
548.879	45.73
549.222	45.39
549.565	45.05
549.908	44.72
550.25	44.41
550.593	44.17
550.936	44.03
551.278	43.95
551.621	43.92
551.963	43.92
552.306	43.94
552.648	44
552.991	44.1
553.333	44.22
553.675	44.38
554.017	44.58
554.36	44.82
554.702	45.09
555.044	45.41
555.386	45.78
555.728	46.21
556.07	46.54
556.412	46.91
556.754	47.18
557.096	47.38
557.438	47.58
557.78	47.8
558.121	48
558.463	48.21
558.805	48.41
559.147	48.61
559.488	48.8
559.83	48.99
560.171	49.18
560.513	49.38
560.854	49.56
561.196	49.74
561.537	49.92
561.878	50.09
562.22	50.25
562.561	50.41
562.902	50.57
563.243	50.74
563.584	50.89
563.925	51.05
564.266	51.22
564.607	51.38
564.948	51.55
565.289	51.71
565.63	51.86
565.971	52.01
566.312	52.16
566.653	52.29
566.993	52.44
567.334	52.57
567.675	52.71
568.015	52.84
568.356	52.96
568.696	53.08
569.037	53.19
569.377	53.31
569.718	53.42
570.058	53.54
570.398	53.63
570.739	53.73
571.079	53.83
571.419	53.92
571.759	54
572.099	54.08
572.439	54.16
572.779	54.24
573.119	54.31
573.459	54.39
573.799	54.48
574.139	54.56
574.479	54.63
574.819	54.71
575.158	54.78
575.498	54.85
575.838	54.93
576.177	55
576.517	55.08
576.856	55.15
577.196	55.22
577.535	55.29
577.875	55.37
578.214	55.44
578.553	55.5
578.893	55.56
579.232	55.63
579.571	55.68
579.91	55.76
580.25	55.82
580.589	55.89
580.928	55.95
581.267	56.01
581.606	56.07
581.945	56.14
582.283	56.21
582.622	56.29
582.961	56.36
583.3	56.42
583.639	56.5
583.977	56.57
584.316	56.63
584.654	56.71
584.993	56.79
585.332	56.86
585.67	56.94
586.008	57.01
586.347	57.08
586.685	57.16
587.024	57.24
587.362	57.31
587.7	57.38
588.038	57.46
588.376	57.53
588.715	57.61
589.053	57.69
589.391	57.77
589.729	57.85
590.067	57.92
590.404	58
590.742	58.07
591.08	58.15
591.418	58.22
591.756	58.28
592.093	58.34
592.431	58.4
592.769	58.44
593.106	58.5
593.444	58.56
593.781	58.59
594.119	58.64
594.456	58.7
594.793	58.75
595.131	58.81
595.468	58.86
595.805	58.91
596.143	58.97
596.48	59.03
596.817	59.08
597.154	59.16
597.491	59.23
597.828	59.29
598.165	59.36
598.502	59.42
598.839	59.48
599.176	59.52
599.512	59.57
599.849	59.63
600.186	59.68
600.523	59.72
600.859	59.77
601.196	59.82
601.532	59.86
601.869	59.91
602.205	59.95
602.542	59.99
602.878	60.02
603.215	60.06
603.551	60.1
603.887	60.14
604.223	60.18
604.56	60.22
604.896	60.25
605.232	60.28
605.568	60.31
605.904	60.34
606.24	60.38
606.576	60.41
606.912	60.44
607.248	60.46
607.583	60.5
607.919	60.53
608.255	60.55
608.591	60.57
608.926	60.59
609.262	60.62
609.597	60.64
609.933	60.66
610.268	60.68
610.604	60.71
610.939	60.71
611.275	60.71
611.61	60.73
611.945	60.74
612.281	60.75
612.616	60.75
612.951	60.77
613.286	60.78
613.621	60.78
613.956	60.8
614.291	60.83
614.626	60.84
614.961	60.85
615.296	60.85
615.631	60.85
615.966	60.86
616.3	60.88
616.635	60.89
616.97	60.91
617.304	60.94
617.639	60.96
617.973	60.97
618.308	60.97
618.642	60.98
618.977	60.99
619.311	61.01
619.646	61.04
619.98	61.07
620.314	61.09
620.648	61.12
620.983	61.15
621.317	61.17
621.651	61.19
621.985	61.22
622.319	61.24
622.653	61.27
622.987	61.29
623.321	61.32
623.655	61.33
623.988	61.35
624.322	61.37
624.656	61.4
624.99	61.42
625.323	61.43
625.657	61.45
625.99	61.48
626.324	61.5
626.657	61.53
626.991	61.54
627.324	61.57
627.658	61.6
627.991	61.61
628.324	61.62
628.657	61.64
628.991	61.66
629.324	61.68
629.657	61.7
629.99	61.71
630.323	61.73
630.656	61.75
630.989	61.74
631.322	61.75
631.655	61.77
631.987	61.78
632.32	61.8
632.653	61.82
632.986	61.83
633.318	61.83
633.651	61.83
633.984	61.85
634.316	61.87
634.649	61.86
634.981	61.86
635.313	61.86
635.646	61.88
635.978	61.89
636.31	61.9
636.643	61.91
636.975	61.93
637.307	61.95
637.639	61.97
637.971	61.98
638.303	61.98
638.635	61.99
638.967	62.01
639.299	62.01
639.631	62.03
639.963	62.06
640.295	62.06
640.626	62.08
640.958	62.09
641.29	62.1
641.621	62.12
641.953	62.13
642.285	62.16
642.616	62.19
642.948	62.2
643.279	62.22
643.61	62.23
643.942	62.25
644.273	62.26
644.604	62.29
644.936	62.3
645.267	62.31
645.598	62.34
645.929	62.33
646.26	62.35
646.591	62.37
646.922	62.4
647.253	62.41
647.584	62.45
647.915	62.48
648.245	62.5
648.576	62.53
648.907	62.56
649.238	62.58
649.568	62.59
649.899	62.59
650.229	62.61
650.56	62.62
650.89	62.63
651.221	62.64
651.551	62.68
651.882	62.69
652.212	62.71
652.542	62.72
652.872	62.73
653.203	62.74
653.533	62.75
653.863	62.77
654.193	62.79
654.523	62.79
654.853	62.81
655.183	62.83
655.513	62.84
655.843	62.85
656.172	62.87
656.502	62.89
656.832	62.9
657.162	62.91
657.491	62.93
657.821	62.92
658.15	62.93
658.48	62.95
658.809	62.96
659.139	62.97
659.468	62.98
659.798	63
660.127	63.02
660.456	63.04
660.785	63.06
661.115	63.05
661.444	63.07
661.773	63.08
662.102	63.09
662.431	63.1
662.76	63.11
663.089	63.12
663.418	63.12
663.747	63.15
664.076	63.17
664.404	63.17
664.733	63.17
665.062	63.17
665.39	63.19
665.719	63.19
666.048	63.19
666.376	63.2
666.705	63.2
667.033	63.2
667.362	63.2
667.69	63.22
