Data from UWBM12228_Reflection_00013.txt Node
Date: Sun May 02 12:54:48 EDT 2021
User: vgr7
Spectrometer: USB2G7710
Scans to average: 10
Trigger mode: 4
Integration Time (sec): 1.000000E-1
Electric dark correction enabled: true
Boxcar width: 20
XAxis mode: Wavelengths
Number of Pixels in Spectrum: 2048
>>>>>Begin Spectral Data<<<<<
177.721	98.86
178.105	98.52
178.488	97.25
178.871	96.32
179.254	95.65
179.636	93.19
180.019	89.82
180.402	87.87
180.785	85.67
181.168	83.87
181.55	81.03
181.933	118.39
182.316	118.89
182.698	120.59
183.081	121.73
183.463	123.86
183.846	126.41
184.228	126.81
184.611	127.3
184.993	130.59
185.376	133.63
185.758	-134.56
186.14	-68.32
186.522	-31.99
186.904	-14.2
187.287	-3.29
187.669	2.52
188.051	2.96
188.433	8.94
188.815	2.32
189.197	2.27
189.579	2.97
189.961	3.07
190.342	2.06
190.724	5.36
191.106	2.78
191.488	5.34
191.869	-0.17
192.251	1.19
192.633	-1.81
193.014	-2.67
193.396	-3.32
193.777	5.07
194.159	6.63
194.54	6.1
194.922	6.97
195.303	9.42
195.684	10.32
196.065	10.5
196.447	8.62
196.828	7.53
197.209	8.98
197.59	-0.03
197.971	-0.45
198.352	0.19
198.733	2.43
199.114	2.34
199.495	2.54
199.876	3.45
200.257	1.92
200.638	1.79
201.018	-2.98
201.399	-4.43
201.78	-6.83
202.16	-6.44
202.541	-4.89
202.922	-4.65
203.302	-8.69
203.683	-9.35
204.063	-9.47
204.444	-6.41
204.824	-3.82
205.204	-0.99
205.585	7.96
205.965	7.51
206.345	8.31
206.725	3.14
207.106	1.59
207.486	1.73
207.866	3.58
208.246	3.98
208.626	6.48
209.006	11.58
209.386	6.8
209.766	6.18
210.145	5.25
210.525	3.8
210.905	4.85
211.285	6.04
211.664	4.48
212.044	6.26
212.424	7.14
212.803	1.9
213.183	4.25
213.562	4.05
213.942	4.7
214.321	2.05
214.701	1.95
215.08	4
215.459	2.82
215.838	3.57
216.218	3.7
216.597	2.16
216.976	-0.58
217.355	0.39
217.734	-0.98
218.113	-1.37
218.492	0.81
218.871	3.21
219.25	3.27
219.629	1.76
220.008	2.01
220.387	2.05
220.766	2.96
221.144	1.84
221.523	3.68
221.902	4.4
222.28	6.16
222.659	7.58
223.037	7.36
223.416	7.5
223.794	8.81
224.173	8.67
224.551	7.55
224.929	7.53
225.308	8.35
225.686	7.96
226.064	7.85
226.442	7.55
226.821	7.23
227.199	7.24
227.577	6.85
227.955	6.02
228.333	6.04
228.711	5.94
229.089	6.66
229.467	6.14
229.845	6.74
230.222	7.01
230.6	7.19
230.978	7.17
231.356	6.25
231.733	6.08
232.111	6.15
232.488	6.17
232.866	6.01
233.243	5.93
233.621	6.05
233.998	5.72
234.376	5.69
234.753	5.74
235.13	5.93
235.508	6.25
235.885	6.12
236.262	6
236.639	6.11
237.016	6
237.393	5.9
237.77	5.7
238.147	5.67
238.524	5.65
238.901	5.64
239.278	5.53
239.655	5.5
240.032	5.47
240.409	5.47
240.785	5.33
241.162	5.37
241.539	5.33
241.915	5.32
242.292	5.31
242.668	5.21
243.045	5.18
243.421	5.09
243.798	5.04
244.174	5.01
244.551	4.92
244.927	4.78
245.303	4.73
245.679	4.71
246.056	4.63
246.432	4.6
246.808	4.43
247.184	4.44
247.56	4.4
247.936	4.42
248.312	4.43
248.688	4.5
249.064	4.47
249.44	4.42
249.815	4.4
250.191	4.35
250.567	4.31
250.943	4.38
251.318	4.41
251.694	4.36
252.069	4.3
252.445	4.29
252.82	4.37
253.196	4.36
253.571	4.29
253.947	4.36
254.322	4.32
254.697	4.46
255.073	4.43
255.448	4.4
255.823	4.39
256.198	4.35
256.573	4.2
256.948	4.19
257.323	4.18
257.698	4.12
258.073	4.14
258.448	4.01
258.823	4
259.198	3.97
259.573	3.98
259.948	4.02
260.322	3.96
260.697	3.97
261.072	3.97
261.446	3.96
261.821	3.94
262.195	3.9
262.57	3.87
262.944	3.86
263.319	3.82
263.693	3.83
264.067	3.83
264.442	3.91
264.816	3.91
265.19	3.89
265.564	3.94
265.938	3.9
266.313	3.94
266.687	3.9
267.061	3.9
267.435	3.87
267.809	3.85
268.183	3.84
268.556	3.86
268.93	3.86
269.304	3.86
269.678	3.81
270.051	3.77
270.425	3.76
270.799	3.79
271.172	3.78
271.546	3.79
271.919	3.78
272.293	3.75
272.666	3.77
273.04	3.8
273.413	3.73
273.787	3.73
274.16	3.73
274.533	3.77
274.906	3.76
275.279	3.77
275.653	3.76
276.026	3.74
276.399	3.7
276.772	3.7
277.145	3.74
277.518	3.74
277.891	3.76
278.263	3.78
278.636	3.79
279.009	3.8
279.382	3.77
279.755	3.72
280.127	3.76
280.5	3.76
280.872	3.74
281.245	3.85
281.617	3.86
281.99	3.89
282.362	3.91
282.735	3.9
283.107	3.91
283.479	3.91
283.852	3.92
284.224	3.96
284.596	3.94
284.968	3.84
285.34	3.84
285.713	3.83
286.085	3.76
286.457	3.77
286.829	3.76
287.201	3.77
287.572	3.84
287.944	3.85
288.316	3.87
288.688	3.92
289.06	3.93
289.431	3.95
289.803	3.97
290.175	3.99
290.546	4.02
290.918	4.04
291.289	4.02
291.661	4.06
292.032	4.02
292.403	4.04
292.775	4.15
293.146	4.16
293.517	4.2
293.889	4.27
294.26	4.29
294.631	4.34
295.002	4.4
295.373	4.43
295.744	4.44
296.115	4.46
296.486	4.43
296.857	4.45
297.228	4.45
297.599	4.48
297.97	4.5
298.34	4.56
298.711	4.54
299.082	4.57
299.452	4.61
299.823	4.66
300.194	4.71
300.564	4.74
300.935	4.77
301.305	4.8
301.676	4.81
302.046	4.85
302.416	4.89
302.787	4.92
303.157	4.9
303.527	4.96
303.897	5.01
304.267	5.05
304.637	5.12
305.008	5.18
305.378	5.24
305.748	5.28
306.117	5.39
306.487	5.5
306.857	5.59
307.227	5.66
307.597	5.71
307.967	5.77
308.336	5.83
308.706	5.88
309.076	5.96
309.445	6
309.815	5.95
310.184	6
310.554	6.03
310.923	6.11
311.293	6.18
311.662	6.24
312.031	6.29
312.401	6.35
312.77	6.38
313.139	6.43
313.508	6.49
313.877	6.5
314.246	6.52
314.616	6.56
314.985	6.58
315.353	6.64
315.722	6.69
316.091	6.77
316.46	6.84
316.829	6.93
317.198	7
317.567	7.19
317.935	7.25
318.304	7.36
318.672	7.44
319.041	7.52
319.41	7.61
319.778	7.69
320.147	7.76
320.515	7.84
320.883	7.89
321.252	7.91
321.62	8
321.988	8.07
322.357	8.12
322.725	8.25
323.093	8.31
323.461	8.37
323.829	8.44
324.197	8.48
324.565	8.51
324.933	8.58
325.301	8.61
325.669	8.65
326.037	8.7
326.405	8.7
326.772	8.74
327.14	8.78
327.508	8.81
327.875	8.85
328.243	8.9
328.61	8.91
328.978	8.95
329.346	9.02
329.713	9.03
330.08	9.06
330.448	9.1
330.815	9.12
331.182	9.15
331.55	9.18
331.917	9.23
332.284	9.26
332.651	9.32
333.018	9.35
333.385	9.41
333.752	9.47
334.119	9.52
334.486	9.58
334.853	9.6
335.22	9.64
335.587	9.66
335.954	9.71
336.32	9.76
336.687	9.79
337.054	9.82
337.42	9.87
337.787	9.89
338.153	9.94
338.52	10
338.886	10.05
339.253	10.07
339.619	10.09
339.986	10.09
340.352	10.11
340.718	10.15
341.084	10.18
341.451	10.2
341.817	10.22
342.183	10.23
342.549	10.29
342.915	10.31
343.281	10.34
343.647	10.38
344.013	10.42
344.379	10.45
344.745	10.47
345.11	10.49
345.476	10.52
345.842	10.54
346.208	10.53
346.573	10.54
346.939	10.56
347.304	10.57
347.67	10.59
348.035	10.61
348.401	10.61
348.766	10.63
349.132	10.64
349.497	10.64
349.862	10.65
350.228	10.67
350.593	10.68
350.958	10.67
351.323	10.66
351.688	10.66
352.053	10.65
352.418	10.65
352.783	10.63
353.148	10.61
353.513	10.59
353.878	10.58
354.243	10.56
354.608	10.55
354.972	10.54
355.337	10.52
355.702	10.49
356.066	10.47
356.431	10.45
356.795	10.43
357.16	10.39
357.524	10.37
357.889	10.35
358.253	10.34
358.618	10.32
358.982	10.29
359.346	10.27
359.71	10.25
360.075	10.24
360.439	10.22
360.803	10.18
361.167	10.16
361.531	10.15
361.895	10.12
362.259	10.1
362.623	10.07
362.987	10.03
363.351	10.01
363.714	9.98
364.078	9.94
364.442	9.91
364.806	9.88
365.169	9.82
365.533	9.77
365.896	9.72
366.26	9.69
366.623	9.64
366.987	9.59
367.35	9.55
367.714	9.51
368.077	9.47
368.44	9.41
368.803	9.37
369.167	9.32
369.53	9.26
369.893	9.21
370.256	9.15
370.619	9.11
370.982	9.04
371.345	8.97
371.708	8.91
372.071	8.85
372.434	8.78
372.797	8.74
373.159	8.69
373.522	8.63
373.885	8.57
374.247	8.49
374.61	8.43
374.973	8.36
375.335	8.29
375.698	8.22
376.06	8.17
376.423	8.1
376.785	8.04
377.147	7.97
377.51	7.91
377.872	7.85
378.234	7.78
378.596	7.74
378.958	7.68
379.321	7.64
379.683	7.58
380.045	7.52
380.407	7.47
380.769	7.41
381.13	7.36
381.492	7.32
381.854	7.27
382.216	7.22
382.578	7.17
382.939	7.12
383.301	7.07
383.663	7.01
384.024	6.97
384.386	6.92
384.747	6.88
385.109	6.82
385.47	6.77
385.832	6.73
386.193	6.69
386.554	6.64
386.916	6.6
387.277	6.56
387.638	6.52
387.999	6.49
388.36	6.45
388.721	6.42
389.082	6.38
389.443	6.34
389.804	6.31
390.165	6.28
390.526	6.25
390.887	6.21
391.248	6.17
391.609	6.14
391.969	6.11
392.33	6.08
392.691	6.05
393.051	6.01
393.412	5.97
393.772	5.94
394.133	5.91
394.493	5.87
394.854	5.84
395.214	5.8
395.574	5.76
395.935	5.72
396.295	5.69
396.655	5.66
397.015	5.62
397.376	5.57
397.736	5.55
398.096	5.51
398.456	5.48
398.816	5.46
399.176	5.41
399.535	5.38
399.895	5.35
400.255	5.32
400.615	5.29
400.975	5.26
401.334	5.23
401.694	5.2
402.054	5.18
402.413	5.13
402.773	5.1
403.132	5.08
403.492	5.05
403.851	5.03
404.211	5.01
404.57	4.99
404.929	4.98
405.288	4.96
405.648	4.94
406.007	4.92
406.366	4.91
406.725	4.9
407.084	4.88
407.443	4.87
407.802	4.84
408.161	4.82
408.52	4.8
408.879	4.79
409.238	4.77
409.596	4.76
409.955	4.75
410.314	4.74
410.673	4.72
411.031	4.7
411.39	4.7
411.748	4.69
412.107	4.68
412.465	4.68
412.824	4.68
413.182	4.69
413.54	4.69
413.899	4.7
414.257	4.72
414.615	4.75
414.974	4.77
415.332	4.8
415.69	4.83
416.048	4.84
416.406	4.87
416.764	4.89
417.122	4.91
417.48	4.93
417.838	4.94
418.195	4.96
418.553	4.97
418.911	4.97
419.269	4.96
419.626	4.95
419.984	4.93
420.342	4.9
420.699	4.87
421.057	4.84
421.414	4.82
421.772	4.79
422.129	4.78
422.486	4.77
422.844	4.76
423.201	4.75
423.558	4.74
423.915	4.73
424.273	4.72
424.63	4.71
424.987	4.7
425.344	4.69
425.701	4.68
426.058	4.68
426.415	4.66
426.772	4.65
427.128	4.64
427.485	4.62
427.842	4.6
428.199	4.58
428.555	4.55
428.912	4.53
429.269	4.49
429.625	4.47
429.982	4.43
430.338	4.4
430.695	4.37
431.051	4.33
431.407	4.3
431.764	4.28
432.12	4.25
432.476	4.23
432.832	4.22
433.189	4.22
433.545	4.22
433.901	4.23
434.257	4.25
434.613	4.27
434.969	4.29
435.325	4.32
435.681	4.36
436.036	4.37
436.392	4.39
436.748	4.4
437.104	4.4
437.459	4.41
437.815	4.43
438.171	4.45
438.526	4.47
438.882	4.49
439.237	4.52
439.593	4.56
439.948	4.58
440.304	4.62
440.659	4.64
441.014	4.66
441.369	4.68
441.725	4.7
442.08	4.71
442.435	4.72
442.79	4.72
443.145	4.72
443.5	4.72
443.855	4.72
444.21	4.71
444.565	4.7
444.92	4.69
445.275	4.68
445.629	4.67
445.984	4.66
446.339	4.65
446.693	4.64
447.048	4.62
447.403	4.6
447.757	4.58
448.112	4.55
448.466	4.53
448.82	4.51
449.175	4.49
449.529	4.47
449.883	4.45
450.238	4.42
450.592	4.42
450.946	4.41
451.3	4.4
451.654	4.41
452.008	4.41
452.362	4.41
452.716	4.41
453.07	4.4
453.424	4.39
453.778	4.39
454.132	4.37
454.486	4.36
454.839	4.34
455.193	4.31
455.547	4.3
455.9	4.26
456.254	4.24
456.607	4.21
456.961	4.18
457.314	4.16
457.668	4.15
458.021	4.15
458.375	4.14
458.728	4.15
459.081	4.15
459.434	4.16
459.787	4.17
460.141	4.18
460.494	4.18
460.847	4.19
461.2	4.2
461.553	4.21
461.906	4.22
462.259	4.22
462.611	4.23
462.964	4.24
463.317	4.24
463.67	4.25
464.022	4.25
464.375	4.25
464.728	4.26
465.08	4.26
465.433	4.27
465.785	4.27
466.138	4.25
466.49	4.24
466.843	4.23
467.195	4.22
467.547	4.2
467.899	4.19
468.252	4.17
468.604	4.15
468.956	4.14
469.308	4.13
469.66	4.13
470.012	4.13
470.364	4.14
470.716	4.15
471.068	4.18
471.42	4.21
471.772	4.23
472.123	4.25
472.475	4.27
472.827	4.28
473.178	4.29
473.53	4.3
473.882	4.32
474.233	4.34
474.585	4.38
474.936	4.45
475.288	4.54
475.639	4.65
475.99	4.8
476.342	4.95
476.693	5.12
477.044	5.28
477.395	5.46
477.746	5.63
478.097	5.81
478.448	5.98
478.8	6.16
479.15	6.32
479.501	6.47
479.852	6.6
480.203	6.72
480.554	6.84
480.905	6.96
481.255	7.06
481.606	7.16
481.957	7.25
482.307	7.35
482.658	7.43
483.009	7.52
483.359	7.6
483.709	7.67
484.06	7.75
484.41	7.82
484.761	7.89
485.111	7.95
485.461	8.01
485.811	8.07
486.162	8.13
486.512	8.17
486.862	8.21
487.212	8.23
487.562	8.25
487.912	8.26
488.262	8.26
488.612	8.26
488.961	8.24
489.311	8.2
489.661	8.14
490.011	8.05
490.36	7.95
490.71	7.82
491.06	7.68
491.409	7.54
491.759	7.4
492.108	7.25
492.458	7.09
492.807	6.93
493.157	6.77
493.506	6.61
493.855	6.46
494.204	6.33
494.554	6.21
494.903	6.1
495.252	5.99
495.601	5.89
495.95	5.79
496.299	5.71
496.648	5.63
496.997	5.55
497.346	5.48
497.695	5.41
498.043	5.35
498.392	5.29
498.741	5.23
499.09	5.18
499.438	5.13
499.787	5.09
500.135	5.06
500.484	5.03
500.832	5.02
501.181	5.02
501.529	5.03
501.878	5.05
502.226	5.08
502.574	5.12
502.923	5.16
503.271	5.21
503.619	5.26
503.967	5.31
504.315	5.36
504.663	5.41
505.011	5.46
505.359	5.52
505.707	5.57
506.055	5.63
506.403	5.7
506.751	5.76
507.098	5.83
507.446	5.91
507.794	5.99
508.141	6.07
508.489	6.17
508.837	6.25
509.184	6.34
509.531	6.44
509.879	6.54
510.226	6.64
510.574	6.75
510.921	6.86
511.268	6.98
511.616	7.09
511.963	7.22
512.31	7.35
512.657	7.48
513.004	7.6
513.351	7.73
513.698	7.84
514.045	7.95
514.392	8.06
514.739	8.15
515.086	8.25
515.432	8.35
515.779	8.46
516.126	8.56
516.473	8.68
516.819	8.8
517.166	8.94
517.512	9.09
517.859	9.24
518.205	9.41
518.552	9.59
518.898	9.8
519.245	10.03
519.591	10.32
519.937	10.65
520.283	11.05
520.629	11.48
520.976	11.93
521.322	12.39
521.668	12.87
522.014	13.35
522.36	13.83
522.706	14.31
523.052	14.77
523.398	15.22
523.743	15.63
524.089	16.01
524.435	16.37
524.781	16.73
525.126	17.08
525.472	17.43
525.817	17.78
526.163	18.12
526.509	18.45
526.854	18.78
527.199	19.11
527.545	19.44
527.89	19.79
528.235	20.13
528.581	20.46
528.926	20.77
529.271	21.08
529.616	21.36
529.961	21.61
530.306	21.85
530.651	22.09
530.996	22.32
531.341	22.53
531.686	22.74
532.031	22.94
532.376	23.16
532.721	23.41
533.065	23.68
533.41	23.96
533.755	24.22
534.099	24.45
534.444	24.67
534.788	24.88
535.133	25.08
535.477	25.27
535.822	25.43
536.166	25.56
536.51	25.66
536.855	25.71
537.199	25.75
537.543	25.77
537.887	25.82
538.231	25.9
538.576	25.98
538.92	26.05
539.264	26.11
539.608	26.15
539.951	26.19
540.295	26.21
540.639	26.23
540.983	26.24
541.327	26.25
541.671	26.25
542.014	26.27
542.358	26.29
542.701	26.39
543.045	26.51
543.389	26.66
543.732	26.83
544.075	27.02
544.419	27.22
544.762	27.41
545.105	27.63
545.449	27.86
545.792	28.1
546.135	28.35
546.478	28.56
546.821	28.73
547.165	28.85
547.508	28.93
547.851	28.98
548.194	29
548.536	28.98
548.879	28.94
549.222	28.89
549.565	28.82
549.908	28.77
550.25	28.74
550.593	28.74
550.936	28.81
551.278	28.93
551.621	29.08
551.963	29.25
552.306	29.43
552.648	29.63
552.991	29.86
553.333	30.12
553.675	30.41
554.017	30.72
554.36	31.06
554.702	31.43
555.044	31.82
555.386	32.26
555.728	32.67
556.07	33.06
556.412	33.45
556.754	33.74
557.096	34.03
557.438	34.33
557.78	34.62
558.121	34.9
558.463	35.2
558.805	35.49
559.147	35.79
559.488	36.08
559.83	36.36
560.171	36.65
560.513	36.94
560.854	37.21
561.196	37.5
561.537	37.77
561.878	38.04
562.22	38.29
562.561	38.55
562.902	38.8
563.243	39.05
563.584	39.3
563.925	39.55
564.266	39.79
564.607	40.03
564.948	40.27
565.289	40.5
565.63	40.72
565.971	40.94
566.312	41.16
566.653	41.38
566.993	41.6
567.334	41.8
567.675	41.99
568.015	42.2
568.356	42.39
568.696	42.58
569.037	42.75
569.377	42.93
569.718	43.1
570.058	43.26
570.398	43.42
570.739	43.58
571.079	43.73
571.419	43.86
571.759	44
572.099	44.13
572.439	44.26
572.779	44.4
573.119	44.53
573.459	44.64
573.799	44.77
574.139	44.9
574.479	45.02
574.819	45.13
575.158	45.24
575.498	45.36
575.838	45.47
576.177	45.58
576.517	45.68
576.856	45.78
577.196	45.88
577.535	45.99
577.875	46.08
578.214	46.17
578.553	46.27
578.893	46.36
579.232	46.45
579.571	46.54
579.91	46.63
580.25	46.71
580.589	46.8
580.928	46.89
581.267	46.99
581.606	47.08
581.945	47.17
582.283	47.25
582.622	47.34
582.961	47.44
583.3	47.54
583.639	47.64
583.977	47.74
584.316	47.82
584.654	47.91
584.993	48
585.332	48.09
585.67	48.19
586.008	48.28
586.347	48.36
586.685	48.46
587.024	48.54
587.362	48.64
587.7	48.73
588.038	48.81
588.376	48.9
588.715	49
589.053	49.1
589.391	49.2
589.729	49.3
590.067	49.39
590.404	49.48
590.742	49.58
591.08	49.67
591.418	49.76
591.756	49.84
592.093	49.92
592.431	50
592.769	50.08
593.106	50.16
593.444	50.23
593.781	50.28
594.119	50.34
594.456	50.41
594.793	50.46
595.131	50.52
595.468	50.58
595.805	50.64
596.143	50.72
596.48	50.79
596.817	50.87
597.154	50.94
597.491	51.02
597.828	51.09
598.165	51.17
598.502	51.24
598.839	51.31
599.176	51.37
599.512	51.43
599.849	51.48
600.186	51.54
600.523	51.6
600.859	51.64
601.196	51.69
601.532	51.75
601.869	51.78
602.205	51.83
602.542	51.88
602.878	51.93
603.215	51.96
603.551	52
603.887	52.04
604.223	52.07
604.56	52.11
604.896	52.15
605.232	52.18
605.568	52.21
605.904	52.25
606.24	52.28
606.576	52.31
606.912	52.33
607.248	52.35
607.583	52.39
607.919	52.43
608.255	52.45
608.591	52.49
608.926	52.52
609.262	52.54
609.597	52.57
609.933	52.59
610.268	52.62
610.604	52.63
610.939	52.64
611.275	52.64
611.61	52.65
611.945	52.67
612.281	52.69
612.616	52.71
612.951	52.71
613.286	52.73
613.621	52.73
613.956	52.76
614.291	52.77
614.626	52.8
614.961	52.83
615.296	52.83
615.631	52.87
615.966	52.89
616.3	52.9
616.635	52.9
616.97	52.92
617.304	52.93
617.639	52.94
617.973	52.95
618.308	52.96
618.642	52.98
618.977	53
619.311	53.01
619.646	53.04
619.98	53.07
620.314	53.09
620.648	53.12
620.983	53.16
621.317	53.19
621.651	53.21
621.985	53.24
622.319	53.26
622.653	53.29
622.987	53.32
623.321	53.34
623.655	53.37
623.988	53.4
624.322	53.41
624.656	53.44
624.99	53.46
625.323	53.49
625.657	53.5
625.99	53.52
626.324	53.55
626.657	53.56
626.991	53.57
627.324	53.6
627.658	53.62
627.991	53.65
628.324	53.67
628.657	53.7
628.991	53.73
629.324	53.75
629.657	53.79
629.99	53.81
630.323	53.84
630.656	53.86
630.989	53.9
631.322	53.93
631.655	53.96
631.987	53.99
632.32	54.01
632.653	54.02
632.986	54.04
633.318	54.05
633.651	54.07
633.984	54.07
634.316	54.1
634.649	54.11
634.981	54.14
635.313	54.15
635.646	54.17
635.978	54.18
636.31	54.19
636.643	54.2
636.975	54.2
637.307	54.21
637.639	54.23
637.971	54.27
638.303	54.29
638.635	54.31
638.967	54.33
639.299	54.34
639.631	54.36
639.963	54.39
640.295	54.41
640.626	54.45
640.958	54.49
641.29	54.5
641.621	54.52
641.953	54.53
642.285	54.55
642.616	54.57
642.948	54.58
643.279	54.59
643.61	54.6
643.942	54.62
644.273	54.62
644.604	54.64
644.936	54.66
645.267	54.68
645.598	54.68
645.929	54.69
646.26	54.71
646.591	54.73
646.922	54.74
647.253	54.76
647.584	54.79
647.915	54.82
648.245	54.84
648.576	54.85
648.907	54.88
649.238	54.9
649.568	54.91
649.899	54.93
650.229	54.95
650.56	54.99
650.89	55.02
651.221	55.03
651.551	55.04
651.882	55.07
652.212	55.08
652.542	55.09
652.872	55.13
653.203	55.16
653.533	55.16
653.863	55.17
654.193	55.17
654.523	55.17
654.853	55.18
655.183	55.18
655.513	55.21
655.843	55.22
656.172	55.22
656.502	55.23
656.832	55.24
657.162	55.26
657.491	55.27
657.821	55.29
658.15	55.28
658.48	55.3
658.809	55.31
659.139	55.34
659.468	55.36
659.798	55.4
660.127	55.42
660.456	55.46
660.785	55.49
661.115	55.51
661.444	55.52
661.773	55.54
662.102	55.56
662.431	55.57
662.76	55.59
663.089	55.59
663.418	55.6
663.747	55.63
664.076	55.65
664.404	55.65
664.733	55.67
665.062	55.72
665.39	55.74
665.719	55.74
666.048	55.77
666.376	55.76
666.705	55.76
667.033	55.77
667.362	55.78
667.69	55.81
668.018	55.83
668.347	55.84
668.675	55.84
669.003	55.84
669.331	55.85
669.659	55.86
669.987	55.88
