Data from UWBM37214_Reflection_00003.txt Node
Date: Sun May 02 14:03:34 EDT 2021
User: vgr7
Spectrometer: USB2G7710
Scans to average: 10
Trigger mode: 4
Integration Time (sec): 1.000000E-1
Electric dark correction enabled: true
Boxcar width: 20
XAxis mode: Wavelengths
Number of Pixels in Spectrum: 2048
>>>>>Begin Spectral Data<<<<<
177.721	302.63
178.105	428.81
178.488	-7720
178.871	1193.75
179.254	449.71
179.636	280.97
180.019	139.73
180.402	108.14
180.785	80.97
181.168	75.62
181.55	58.63
181.933	60.67
182.316	44.6
182.698	41.2
183.081	32.77
183.463	29.51
183.846	23.25
184.228	24.66
184.611	25.72
184.993	24.99
185.376	24.77
185.758	26.12
186.14	29.27
186.522	28.46
186.904	28.6
187.287	27.32
187.669	27.57
188.051	26.26
188.433	27.36
188.815	24.61
189.197	24.05
189.579	21.27
189.961	17.11
190.342	14.9
190.724	15.62
191.106	15.76
191.488	15.65
191.869	12.25
192.251	11.61
192.633	11.55
193.014	11.59
193.396	8.99
193.777	9.76
194.159	9.86
194.54	6.39
194.922	4.37
195.303	4.15
195.684	3.38
196.065	2.13
196.447	3.63
196.828	3.02
197.209	3.17
197.59	0.37
197.971	0.91
198.352	1.2
198.733	2.73
199.114	2.77
199.495	3.67
199.876	2.59
200.257	1.22
200.638	0.21
201.018	0.72
201.399	0.43
201.78	0.14
202.16	0.42
202.541	-0.37
202.922	-0.94
203.302	-2.3
203.683	-1.58
204.063	-0.92
204.444	-0.97
204.824	-1.04
205.204	-3.28
205.585	-0.41
205.965	1.45
206.345	0.91
206.725	0.59
207.106	1
207.486	1.45
207.866	2.36
208.246	0.9
208.626	0.32
209.006	2.03
209.386	1.45
209.766	0.19
210.145	1.26
210.525	1.5
210.905	1.96
211.285	0.79
211.664	1.32
212.044	-1.02
212.424	-2.14
212.803	-2.53
213.183	-2.16
213.562	-0.01
213.942	0.57
214.321	0.4
214.701	0.17
215.08	1.14
215.459	0.22
215.838	-0.12
216.218	-0.67
216.597	-0.89
216.976	-0.76
217.355	-0.81
217.734	-0.64
218.113	0.1
218.492	-0.58
218.871	-0.37
219.25	-0.26
219.629	-0.11
220.008	0.44
220.387	-0.34
220.766	1.79
221.144	1.3
221.523	2.32
221.902	2.95
222.28	2.98
222.659	2.73
223.037	3.03
223.416	3.55
223.794	3.94
224.173	4.26
224.551	3.18
224.929	4.22
225.308	4.41
225.686	4.58
226.064	4.81
226.442	4.62
226.821	4.84
227.199	5.3
227.577	5.58
227.955	6.11
228.333	6.31
228.711	6.11
229.089	5.52
229.467	5.11
229.845	5.02
230.222	5.1
230.6	5.04
230.978	5.64
231.356	5.72
231.733	5.53
232.111	5.32
232.488	5.41
232.866	5.3
233.243	5.1
233.621	5.07
233.998	5.21
234.376	5.37
234.753	5.16
235.13	5.01
235.508	5.05
235.885	5.05
236.262	5.04
236.639	4.94
237.016	4.75
237.393	4.63
237.77	4.64
238.147	4.59
238.524	4.47
238.901	4.36
239.278	4.41
239.655	4.36
240.032	4.42
240.409	4.34
240.785	4.31
241.162	4.32
241.539	4.3
241.915	4.35
242.292	4.33
242.668	4.32
243.045	4.32
243.421	4.27
243.798	4.25
244.174	4.28
244.551	4.3
244.927	4.32
245.303	4.35
245.679	4.36
246.056	4.3
246.432	4.28
246.808	4.25
247.184	4.28
247.56	4.27
247.936	4.27
248.312	4.27
248.688	4.26
249.064	4.25
249.44	4.22
249.815	4.17
250.191	4.17
250.567	4.2
250.943	4.17
251.318	4.14
251.694	4.12
252.069	4.13
252.445	4.14
252.82	4.13
253.196	4.1
253.571	4.08
253.947	4.07
254.322	4.07
254.697	4.04
255.073	4.04
255.448	4.03
255.823	4.01
256.198	4.01
256.573	3.98
256.948	3.97
257.323	3.93
257.698	3.91
258.073	3.87
258.448	3.84
258.823	3.85
259.198	3.85
259.573	3.83
259.948	3.83
260.322	3.81
260.697	3.77
261.072	3.76
261.446	3.77
261.821	3.76
262.195	3.77
262.57	3.75
262.944	3.76
263.319	3.76
263.693	3.75
264.067	3.76
264.442	3.76
264.816	3.75
265.19	3.75
265.564	3.75
265.938	3.72
266.313	3.72
266.687	3.72
267.061	3.71
267.435	3.69
267.809	3.68
268.183	3.68
268.556	3.69
268.93	3.7
269.304	3.69
269.678	3.69
270.051	3.68
270.425	3.67
270.799	3.64
271.172	3.64
271.546	3.65
271.919	3.66
272.293	3.65
272.666	3.66
273.04	3.68
273.413	3.72
273.787	3.74
274.16	3.74
274.533	3.74
274.906	3.73
275.279	3.72
275.653	3.72
276.026	3.72
276.399	3.72
276.772	3.71
277.145	3.71
277.518	3.71
277.891	3.73
278.263	3.72
278.636	3.72
279.009	3.72
279.382	3.71
279.755	3.72
280.127	3.74
280.5	3.75
280.872	3.75
281.245	3.76
281.617	3.76
281.99	3.76
282.362	3.75
282.735	3.75
283.107	3.76
283.479	3.74
283.852	3.75
284.224	3.74
284.596	3.74
284.968	3.73
285.34	3.74
285.713	3.75
286.085	3.77
286.457	3.78
286.829	3.78
287.201	3.78
287.572	3.76
287.944	3.77
288.316	3.77
288.688	3.75
289.06	3.75
289.431	3.75
289.803	3.76
290.175	3.77
290.546	3.78
290.918	3.8
291.289	3.81
291.661	3.82
292.032	3.82
292.403	3.82
292.775	3.82
293.146	3.83
293.517	3.84
293.889	3.84
294.26	3.86
294.631	3.89
295.002	3.9
295.373	3.89
295.744	3.89
296.115	3.89
296.486	3.9
296.857	3.91
297.228	3.92
297.599	3.95
297.97	3.95
298.34	3.96
298.711	3.97
299.082	3.97
299.452	3.97
299.823	3.99
300.194	4
300.564	4
300.935	4
301.305	4
301.676	4
302.046	4
302.416	4
302.787	4.01
303.157	4.02
303.527	4.02
303.897	4.02
304.267	4.04
304.637	4.03
305.008	4.03
305.378	4.03
305.748	4.04
306.117	4.02
306.487	4.03
306.857	4.03
307.227	4.04
307.597	4.04
307.967	4.04
308.336	4.04
308.706	4.03
309.076	4.01
309.445	3.99
309.815	3.97
310.184	3.95
310.554	3.94
310.923	3.96
311.293	3.95
311.662	3.94
312.031	3.93
312.401	3.92
312.77	3.92
313.139	3.92
313.508	3.92
313.877	3.91
314.246	3.91
314.616	3.9
314.985	3.91
315.353	3.9
315.722	3.89
316.091	3.9
316.46	3.9
316.829	3.9
317.198	3.91
317.567	3.89
317.935	3.89
318.304	3.88
318.672	3.87
319.041	3.88
319.41	3.86
319.778	3.86
320.147	3.85
320.515	3.84
320.883	3.82
321.252	3.82
321.62	3.79
321.988	3.79
322.357	3.78
322.725	3.78
323.093	3.78
323.461	3.78
323.829	3.79
324.197	3.79
324.565	3.78
324.933	3.79
325.301	3.79
325.669	3.8
326.037	3.78
326.405	3.78
326.772	3.78
327.14	3.78
327.508	3.78
327.875	3.77
328.243	3.75
328.61	3.74
328.978	3.73
329.346	3.73
329.713	3.73
330.08	3.74
330.448	3.72
330.815	3.71
331.182	3.71
331.55	3.71
331.917	3.69
332.284	3.66
332.651	3.66
333.018	3.67
333.385	3.67
333.752	3.67
334.119	3.66
334.486	3.65
334.853	3.65
335.22	3.65
335.587	3.64
335.954	3.64
336.32	3.64
336.687	3.64
337.054	3.64
337.42	3.65
337.787	3.65
338.153	3.65
338.52	3.64
338.886	3.64
339.253	3.64
339.619	3.65
339.986	3.64
340.352	3.64
340.718	3.63
341.084	3.62
341.451	3.62
341.817	3.62
342.183	3.63
342.549	3.62
342.915	3.62
343.281	3.62
343.647	3.63
344.013	3.63
344.379	3.64
344.745	3.64
345.11	3.63
345.476	3.65
345.842	3.65
346.208	3.65
346.573	3.65
346.939	3.64
347.304	3.67
347.67	3.66
348.035	3.66
348.401	3.65
348.766	3.66
349.132	3.66
349.497	3.66
349.862	3.67
350.228	3.66
350.593	3.67
350.958	3.67
351.323	3.68
351.688	3.68
352.053	3.68
352.418	3.68
352.783	3.68
353.148	3.67
353.513	3.68
353.878	3.68
354.243	3.68
354.608	3.68
354.972	3.69
355.337	3.69
355.702	3.7
356.066	3.71
356.431	3.71
356.795	3.7
357.16	3.69
357.524	3.7
357.889	3.71
358.253	3.71
358.618	3.7
358.982	3.69
359.346	3.7
359.71	3.69
360.075	3.7
360.439	3.69
360.803	3.68
361.167	3.68
361.531	3.69
361.895	3.69
362.259	3.68
362.623	3.69
362.987	3.69
363.351	3.7
363.714	3.69
364.078	3.69
364.442	3.69
364.806	3.69
365.169	3.7
365.533	3.7
365.896	3.7
366.26	3.7
366.623	3.71
366.987	3.7
367.35	3.69
367.714	3.7
368.077	3.7
368.44	3.7
368.803	3.69
369.167	3.69
369.53	3.69
369.893	3.68
370.256	3.68
370.619	3.67
370.982	3.67
371.345	3.67
371.708	3.68
372.071	3.68
372.434	3.68
372.797	3.68
373.159	3.68
373.522	3.69
373.885	3.69
374.247	3.7
374.61	3.7
374.973	3.7
375.335	3.7
375.698	3.7
376.06	3.7
376.423	3.7
376.785	3.69
377.147	3.7
377.51	3.7
377.872	3.7
378.234	3.7
378.596	3.69
378.958	3.7
379.321	3.7
379.683	3.71
380.045	3.7
380.407	3.71
380.769	3.71
381.13	3.7
381.492	3.7
381.854	3.7
382.216	3.71
382.578	3.7
382.939	3.7
383.301	3.7
383.663	3.7
384.024	3.7
384.386	3.71
384.747	3.71
385.109	3.71
385.47	3.71
385.832	3.7
386.193	3.71
386.554	3.71
386.916	3.71
387.277	3.7
387.638	3.71
387.999	3.71
388.36	3.71
388.721	3.7
389.082	3.7
389.443	3.7
389.804	3.7
390.165	3.7
390.526	3.7
390.887	3.7
391.248	3.7
391.609	3.7
391.969	3.7
392.33	3.7
392.691	3.7
393.051	3.7
393.412	3.71
393.772	3.71
394.133	3.7
394.493	3.7
394.854	3.7
395.214	3.69
395.574	3.69
395.935	3.69
396.295	3.69
396.655	3.69
397.015	3.69
397.376	3.7
397.736	3.7
398.096	3.7
398.456	3.7
398.816	3.71
399.176	3.71
399.535	3.71
399.895	3.72
400.255	3.72
400.615	3.72
400.975	3.72
401.334	3.72
401.694	3.72
402.054	3.73
402.413	3.72
402.773	3.72
403.132	3.72
403.492	3.73
403.851	3.72
404.211	3.73
404.57	3.73
404.929	3.73
405.288	3.73
405.648	3.74
406.007	3.74
406.366	3.74
406.725	3.74
407.084	3.74
407.443	3.74
407.802	3.74
408.161	3.74
408.52	3.74
408.879	3.74
409.238	3.74
409.596	3.75
409.955	3.75
410.314	3.76
410.673	3.76
411.031	3.77
411.39	3.77
411.748	3.78
412.107	3.78
412.465	3.8
412.824	3.82
413.182	3.84
413.54	3.87
413.899	3.89
414.257	3.93
414.615	3.96
414.974	4
415.332	4.03
415.69	4.08
416.048	4.11
416.406	4.15
416.764	4.18
417.122	4.21
417.48	4.24
417.838	4.27
418.195	4.3
418.553	4.32
418.911	4.34
419.269	4.35
419.626	4.35
419.984	4.35
420.342	4.34
420.699	4.33
421.057	4.31
421.414	4.3
421.772	4.28
422.129	4.28
422.486	4.27
422.844	4.27
423.201	4.27
423.558	4.28
423.915	4.28
424.273	4.28
424.63	4.28
424.987	4.28
425.344	4.28
425.701	4.28
426.058	4.28
426.415	4.28
426.772	4.28
427.128	4.28
427.485	4.27
427.842	4.26
428.199	4.24
428.555	4.23
428.912	4.21
429.269	4.18
429.625	4.16
429.982	4.13
430.338	4.1
430.695	4.08
431.051	4.05
431.407	4.03
431.764	4.01
432.12	4
432.476	3.99
432.832	3.98
433.189	3.98
433.545	3.99
433.901	4
434.257	4.02
434.613	4.05
434.969	4.07
435.325	4.1
435.681	4.14
436.036	4.16
436.392	4.19
436.748	4.2
437.104	4.21
437.459	4.23
437.815	4.25
438.171	4.27
438.526	4.29
438.882	4.33
439.237	4.36
439.593	4.4
439.948	4.43
440.304	4.47
440.659	4.49
441.014	4.52
441.369	4.55
441.725	4.56
442.08	4.58
442.435	4.6
442.79	4.61
443.145	4.61
443.5	4.61
443.855	4.61
444.21	4.61
444.565	4.61
444.92	4.6
445.275	4.6
445.629	4.59
445.984	4.58
446.339	4.57
446.693	4.55
447.048	4.54
447.403	4.52
447.757	4.5
448.112	4.48
448.466	4.46
448.82	4.44
449.175	4.41
449.529	4.39
449.883	4.37
450.238	4.35
450.592	4.34
450.946	4.34
451.3	4.33
451.654	4.34
452.008	4.35
452.362	4.36
452.716	4.36
453.07	4.36
453.424	4.35
453.778	4.35
454.132	4.34
454.486	4.33
454.839	4.31
455.193	4.3
455.547	4.28
455.9	4.25
456.254	4.24
456.607	4.21
456.961	4.18
457.314	4.16
457.668	4.15
458.021	4.15
458.375	4.14
458.728	4.14
459.081	4.14
459.434	4.15
459.787	4.16
460.141	4.17
460.494	4.17
460.847	4.18
461.2	4.19
461.553	4.19
461.906	4.19
462.259	4.2
462.611	4.2
462.964	4.2
463.317	4.21
463.67	4.21
464.022	4.22
464.375	4.22
464.728	4.22
465.08	4.22
465.433	4.22
465.785	4.22
466.138	4.2
466.49	4.19
466.843	4.16
467.195	4.14
467.547	4.12
467.899	4.09
468.252	4.06
468.604	4.03
468.956	4.01
469.308	3.99
469.66	3.98
470.012	3.98
470.364	3.98
470.716	3.98
471.068	3.99
471.42	4.01
471.772	4.03
472.123	4.04
472.475	4.05
472.827	4.06
473.178	4.07
473.53	4.08
473.882	4.1
474.233	4.12
474.585	4.16
474.936	4.22
475.288	4.31
475.639	4.42
475.99	4.55
476.342	4.7
476.693	4.86
477.044	5.02
477.395	5.19
477.746	5.37
478.097	5.54
478.448	5.72
478.8	5.89
479.15	6.05
479.501	6.2
479.852	6.34
480.203	6.47
480.554	6.6
480.905	6.72
481.255	6.83
481.606	6.94
481.957	7.05
482.307	7.15
482.658	7.24
483.009	7.33
483.359	7.42
483.709	7.51
484.06	7.59
484.41	7.67
484.761	7.74
485.111	7.82
485.461	7.89
485.811	7.96
486.162	8.02
486.512	8.07
486.862	8.11
487.212	8.14
487.562	8.16
487.912	8.17
488.262	8.18
488.612	8.17
488.961	8.15
489.311	8.11
489.661	8.04
490.011	7.96
490.36	7.85
490.71	7.73
491.06	7.6
491.409	7.46
491.759	7.31
492.108	7.15
492.458	6.99
492.807	6.82
493.157	6.66
493.506	6.5
493.855	6.35
494.204	6.21
494.554	6.07
494.903	5.94
495.252	5.82
495.601	5.7
495.95	5.58
496.299	5.47
496.648	5.36
496.997	5.27
497.346	5.17
497.695	5.08
498.043	4.99
498.392	4.91
498.741	4.82
499.09	4.75
499.438	4.67
499.787	4.6
500.135	4.53
500.484	4.47
500.832	4.42
501.181	4.37
501.529	4.35
501.878	4.33
502.226	4.32
502.574	4.31
502.923	4.31
503.271	4.31
503.619	4.3
503.967	4.3
504.315	4.3
504.663	4.29
505.011	4.29
505.359	4.28
505.707	4.28
506.055	4.27
506.403	4.27
506.751	4.27
507.098	4.27
507.446	4.27
507.794	4.28
508.141	4.29
508.489	4.29
508.837	4.31
509.184	4.31
509.531	4.32
509.879	4.33
510.226	4.35
510.574	4.37
510.921	4.39
511.268	4.4
511.616	4.42
511.963	4.44
512.31	4.46
512.657	4.48
513.004	4.5
513.351	4.52
513.698	4.53
514.045	4.54
514.392	4.54
514.739	4.55
515.086	4.54
515.432	4.54
515.779	4.53
516.126	4.53
516.473	4.53
516.819	4.53
517.166	4.53
517.512	4.54
517.859	4.55
518.205	4.57
518.552	4.59
518.898	4.62
519.245	4.66
519.591	4.71
519.937	4.79
520.283	4.88
520.629	4.97
520.976	5.09
521.322	5.2
521.668	5.32
522.014	5.45
522.36	5.58
522.706	5.7
523.052	5.81
523.398	5.92
523.743	6.01
524.089	6.09
524.435	6.16
524.781	6.22
525.126	6.28
525.472	6.33
525.817	6.39
526.163	6.44
526.509	6.49
526.854	6.53
527.199	6.58
527.545	6.62
527.89	6.67
528.235	6.72
528.581	6.76
528.926	6.81
529.271	6.84
529.616	6.88
529.961	6.92
530.306	6.95
530.651	6.98
530.996	6.99
531.341	7
531.686	7.01
532.031	7.01
532.376	7.01
532.721	7.02
533.065	7.02
533.41	7.03
533.755	7.02
534.099	7.01
534.444	6.98
534.788	6.95
535.133	6.91
535.477	6.86
535.822	6.81
536.166	6.75
536.51	6.68
536.855	6.61
537.199	6.53
537.543	6.45
537.887	6.38
538.231	6.32
538.576	6.27
538.92	6.21
539.264	6.16
539.608	6.1
539.951	6.04
540.295	5.97
540.639	5.91
540.983	5.84
541.327	5.78
541.671	5.7
542.014	5.64
542.358	5.58
542.701	5.53
543.045	5.5
543.389	5.47
543.732	5.45
544.075	5.43
544.419	5.41
544.762	5.39
545.105	5.38
545.449	5.38
545.792	5.37
546.135	5.36
546.478	5.34
546.821	5.32
547.165	5.29
547.508	5.25
547.851	5.2
548.194	5.14
548.536	5.08
548.879	5.01
549.222	4.94
549.565	4.87
549.908	4.79
550.25	4.72
550.593	4.66
550.936	4.61
551.278	4.57
551.621	4.54
551.963	4.5
552.306	4.48
552.648	4.45
552.991	4.44
553.333	4.42
553.675	4.41
554.017	4.41
554.36	4.4
554.702	4.41
555.044	4.41
555.386	4.42
555.728	4.44
556.07	4.45
556.412	4.47
556.754	4.48
557.096	4.48
557.438	4.48
557.78	4.48
558.121	4.48
558.463	4.49
558.805	4.49
559.147	4.49
559.488	4.48
559.83	4.49
560.171	4.49
560.513	4.49
560.854	4.49
561.196	4.49
561.537	4.49
561.878	4.5
562.22	4.5
562.561	4.5
562.902	4.5
563.243	4.5
563.584	4.51
563.925	4.51
564.266	4.51
564.607	4.52
564.948	4.52
565.289	4.52
565.63	4.52
565.971	4.53
566.312	4.54
566.653	4.54
566.993	4.54
567.334	4.55
567.675	4.55
568.015	4.56
568.356	4.56
568.696	4.56
569.037	4.56
569.377	4.56
569.718	4.57
570.058	4.57
570.398	4.57
570.739	4.57
571.079	4.57
571.419	4.58
571.759	4.57
572.099	4.57
572.439	4.57
572.779	4.57
573.119	4.57
573.459	4.57
573.799	4.57
574.139	4.57
574.479	4.57
574.819	4.58
575.158	4.57
575.498	4.58
575.838	4.58
576.177	4.57
576.517	4.57
576.856	4.58
577.196	4.58
577.535	4.58
577.875	4.58
578.214	4.58
578.553	4.58
578.893	4.58
579.232	4.58
579.571	4.58
579.91	4.57
580.25	4.57
580.589	4.57
580.928	4.56
581.267	4.56
581.606	4.56
581.945	4.55
582.283	4.56
582.622	4.56
582.961	4.56
583.3	4.56
583.639	4.56
583.977	4.56
584.316	4.56
584.654	4.56
584.993	4.56
585.332	4.56
585.67	4.56
586.008	4.56
586.347	4.56
586.685	4.56
587.024	4.56
587.362	4.56
587.7	4.56
588.038	4.57
588.376	4.57
588.715	4.57
589.053	4.57
589.391	4.57
589.729	4.58
590.067	4.58
590.404	4.58
590.742	4.58
591.08	4.59
591.418	4.59
591.756	4.6
592.093	4.6
592.431	4.6
592.769	4.6
593.106	4.61
593.444	4.61
593.781	4.61
594.119	4.61
594.456	4.61
594.793	4.61
595.131	4.62
595.468	4.62
595.805	4.62
596.143	4.62
596.48	4.62
596.817	4.63
597.154	4.63
597.491	4.63
597.828	4.64
598.165	4.64
598.502	4.65
598.839	4.65
599.176	4.65
599.512	4.65
599.849	4.66
600.186	4.66
600.523	4.67
600.859	4.67
601.196	4.67
601.532	4.67
601.869	4.67
602.205	4.67
602.542	4.68
602.878	4.68
603.215	4.68
603.551	4.68
603.887	4.68
604.223	4.68
604.56	4.69
604.896	4.69
605.232	4.69
605.568	4.69
605.904	4.69
606.24	4.69
606.576	4.69
606.912	4.69
607.248	4.69
607.583	4.69
607.919	4.69
608.255	4.69
608.591	4.7
608.926	4.7
609.262	4.7
609.597	4.69
609.933	4.69
610.268	4.7
610.604	4.69
610.939	4.69
611.275	4.69
611.61	4.7
611.945	4.7
612.281	4.69
612.616	4.69
612.951	4.69
613.286	4.69
613.621	4.7
613.956	4.7
614.291	4.69
614.626	4.69
614.961	4.7
615.296	4.7
615.631	4.7
615.966	4.71
616.3	4.71
616.635	4.71
616.97	4.71
617.304	4.7
617.639	4.71
617.973	4.71
618.308	4.71
618.642	4.7
618.977	4.7
619.311	4.71
619.646	4.7
619.98	4.71
620.314	4.71
620.648	4.71
620.983	4.72
621.317	4.73
621.651	4.73
621.985	4.74
622.319	4.74
622.653	4.74
622.987	4.75
623.321	4.75
623.655	4.76
623.988	4.76
624.322	4.76
624.656	4.77
624.99	4.77
625.323	4.78
625.657	4.77
625.99	4.77
626.324	4.77
626.657	4.77
626.991	4.78
627.324	4.77
627.658	4.77
627.991	4.77
628.324	4.77
628.657	4.77
628.991	4.77
629.324	4.78
629.657	4.78
629.99	4.78
630.323	4.79
630.656	4.79
630.989	4.8
631.322	4.8
631.655	4.8
631.987	4.8
632.32	4.81
632.653	4.81
632.986	4.82
633.318	4.82
633.651	4.82
633.984	4.83
634.316	4.83
634.649	4.83
634.981	4.83
635.313	4.83
635.646	4.83
635.978	4.84
636.31	4.84
636.643	4.84
636.975	4.84
637.307	4.84
637.639	4.85
637.971	4.85
638.303	4.84
638.635	4.84
638.967	4.84
639.299	4.85
639.631	4.85
639.963	4.87
640.295	4.88
640.626	4.88
640.958	4.89
641.29	4.89
641.621	4.9
641.953	4.9
642.285	4.9
642.616	4.92
642.948	4.91
643.279	4.92
643.61	4.93
643.942	4.94
644.273	4.94
644.604	4.95
644.936	4.94
645.267	4.95
645.598	4.94
645.929	4.95
646.26	4.95
646.591	4.95
646.922	4.95
647.253	4.95
647.584	4.96
647.915	4.96
648.245	4.96
648.576	4.97
648.907	4.97
649.238	4.98
649.568	4.98
649.899	4.98
650.229	4.99
650.56	4.99
650.89	5
651.221	5
651.551	5.01
651.882	5.02
652.212	5.02
652.542	5.03
652.872	5.03
653.203	5.03
653.533	5.03
653.863	5.03
654.193	5.03
654.523	5.03
654.853	5.03
655.183	5.04
655.513	5.04
655.843	5.04
656.172	5.04
656.502	5.05
656.832	5.06
657.162	5.05
657.491	5.05
657.821	5.05
658.15	5.05
658.48	5.06
658.809	5.06
659.139	5.07
659.468	5.07
659.798	5.07
660.127	5.08
660.456	5.09
660.785	5.1
661.115	5.1
661.444	5.11
661.773	5.11
662.102	5.11
662.431	5.11
662.76	5.12
663.089	5.13
663.418	5.14
663.747	5.15
664.076	5.16
664.404	5.15
664.733	5.16
665.062	5.16
665.39	5.17
665.719	5.17
666.048	5.18
666.376	5.18
666.705	5.19
667.033	5.2
667.362	5.21
667.69	5.21
668.018	5.22
668.347	5.23
668.675	5.24
669.003	5.25
669.331	5.26
669.659	5.26
669.987	5.26
670.315	5.25
670.643	5.26
670.971	5.26
671.299	5.27
671.627	5.27
671.955	5.27
672.283	5.27
672.61	5.27
672.938	5.28
673.266	5.29
673.593	5.29
673.921	5.28
674.249	5.29
674.576	5.29
674.904	5.29
675.231	5.3
675.558	5.3
675.886	5.3
676.213	5.31
676.54	5.31
676.867	5.3
677.195	5.3
677.522	5.31
677.849	5.31
678.176	5.31
678.503	5.31
678.83	5.32
679.157	5.32
679.484	5.32
679.81	5.33
680.137	5.33
680.464	5.33
680.791	5.34
681.117	5.34
681.444	5.34
681.771	5.34
682.097	5.35
682.424	5.34
682.75	5.34
683.077	5.34
