Data from UWBM86267_Reflection_00006.txt Node
Date: Sun May 02 14:07:44 EDT 2021
User: vgr7
Spectrometer: USB2G7710
Scans to average: 10
Trigger mode: 4
Integration Time (sec): 1.000000E-1
Electric dark correction enabled: true
Boxcar width: 20
XAxis mode: Wavelengths
Number of Pixels in Spectrum: 2048
>>>>>Begin Spectral Data<<<<<
177.721	186.29
178.105	245
178.488	321.2
178.871	388.06
179.254	234.66
179.636	189.68
180.019	148.87
180.402	134.36
180.785	95.72
181.168	89.8
181.55	64.01
181.933	66.2
182.316	62.04
182.698	59.85
183.081	51.13
183.463	42.75
183.846	32.7
184.228	31.25
184.611	28.61
184.993	25.74
185.376	27.45
185.758	29.12
186.14	27.16
186.522	28.58
186.904	25.96
187.287	27.2
187.669	28.76
188.051	28.47
188.433	25.79
188.815	19.41
189.197	18.07
189.579	18.05
189.961	17.19
190.342	16.41
190.724	17.9
191.106	18.76
191.488	18.01
191.869	16.44
192.251	14.55
192.633	14.99
193.014	12.89
193.396	9.86
193.777	10.27
194.159	8.71
194.54	6.15
194.922	3.65
195.303	3.15
195.684	3.3
196.065	2.6
196.447	3.25
196.828	0.98
197.209	1.35
197.59	-2.99
197.971	-2.39
198.352	-2.01
198.733	0.21
199.114	1.05
199.495	4.05
199.876	3.54
200.257	4.23
200.638	4.44
201.018	6.39
201.399	7.15
201.78	6.67
202.16	6.58
202.541	7.54
202.922	6.56
203.302	5.34
203.683	4.58
204.063	4.21
204.444	5.25
204.824	4.39
205.204	2.75
205.585	3.75
205.965	5.35
206.345	4.11
206.725	3.98
207.106	3.28
207.486	3.59
207.866	4.5
208.246	2.85
208.626	2.39
209.006	3.76
209.386	3.18
209.766	2.94
210.145	3.65
210.525	4.91
210.905	5.71
211.285	4.37
211.664	5.47
212.044	5.11
212.424	6.68
212.803	6.87
213.183	7.3
213.562	8.37
213.942	8.82
214.321	6.42
214.701	5.84
215.08	5.66
215.459	5.17
215.838	4.53
216.218	4.43
216.597	1.4
216.976	1.03
217.355	0.53
217.734	0.24
218.113	0.51
218.492	-0.03
218.871	-0.37
219.25	0.3
219.629	1.4
220.008	1.11
220.387	0.78
220.766	3.6
221.144	3.64
221.523	3.23
221.902	4.5
222.28	4.24
222.659	4.95
223.037	4.81
223.416	5.43
223.794	5.15
224.173	5.33
224.551	4.73
224.929	5.25
225.308	5.27
225.686	5.41
226.064	5.38
226.442	5.73
226.821	5.95
227.199	6.13
227.577	5.91
227.955	5.99
228.333	6.3
228.711	6.11
229.089	5.37
229.467	4.9
229.845	5.06
230.222	5.04
230.6	5.08
230.978	5.2
231.356	5.02
231.733	4.86
232.111	5
232.488	4.97
232.866	4.82
233.243	4.67
233.621	4.74
233.998	4.68
234.376	4.78
234.753	4.67
235.13	4.62
235.508	4.74
235.885	4.89
236.262	4.67
236.639	4.55
237.016	4.45
237.393	4.35
237.77	4.31
238.147	4.26
238.524	4.27
238.901	4.06
239.278	4.13
239.655	4.13
240.032	4.13
240.409	4.1
240.785	4.1
241.162	4.06
241.539	4
241.915	4.02
242.292	4.03
242.668	4.03
243.045	4.01
243.421	3.96
243.798	3.92
244.174	3.97
244.551	3.99
244.927	3.96
245.303	3.98
245.679	3.99
246.056	3.93
246.432	3.93
246.808	3.93
247.184	3.95
247.56	3.95
247.936	3.92
248.312	3.93
248.688	3.93
249.064	3.92
249.44	3.94
249.815	3.91
250.191	3.89
250.567	3.89
250.943	3.88
251.318	3.82
251.694	3.81
252.069	3.8
252.445	3.81
252.82	3.81
253.196	3.79
253.571	3.77
253.947	3.76
254.322	3.75
254.697	3.75
255.073	3.72
255.448	3.72
255.823	3.69
256.198	3.67
256.573	3.67
256.948	3.68
257.323	3.64
257.698	3.62
258.073	3.59
258.448	3.58
258.823	3.57
259.198	3.55
259.573	3.51
259.948	3.51
260.322	3.51
260.697	3.48
261.072	3.47
261.446	3.47
261.821	3.45
262.195	3.45
262.57	3.43
262.944	3.42
263.319	3.44
263.693	3.44
264.067	3.45
264.442	3.44
264.816	3.42
265.19	3.42
265.564	3.43
265.938	3.41
266.313	3.41
266.687	3.41
267.061	3.39
267.435	3.4
267.809	3.38
268.183	3.37
268.556	3.36
268.93	3.38
269.304	3.38
269.678	3.4
270.051	3.38
270.425	3.36
270.799	3.36
271.172	3.37
271.546	3.36
271.919	3.35
272.293	3.34
272.666	3.35
273.04	3.36
273.413	3.39
273.787	3.4
274.16	3.4
274.533	3.39
274.906	3.41
275.279	3.41
275.653	3.42
276.026	3.42
276.399	3.43
276.772	3.45
277.145	3.44
277.518	3.44
277.891	3.47
278.263	3.47
278.636	3.46
279.009	3.45
279.382	3.43
279.755	3.44
280.127	3.44
280.5	3.44
280.872	3.43
281.245	3.42
281.617	3.41
281.99	3.41
282.362	3.41
282.735	3.4
283.107	3.42
283.479	3.41
283.852	3.42
284.224	3.4
284.596	3.39
284.968	3.38
285.34	3.38
285.713	3.39
286.085	3.39
286.457	3.38
286.829	3.37
287.201	3.38
287.572	3.38
287.944	3.38
288.316	3.36
288.688	3.35
289.06	3.35
289.431	3.35
289.803	3.36
290.175	3.36
290.546	3.36
290.918	3.37
291.289	3.37
291.661	3.36
292.032	3.33
292.403	3.34
292.775	3.34
293.146	3.33
293.517	3.34
293.889	3.34
294.26	3.36
294.631	3.37
295.002	3.38
295.373	3.38
295.744	3.39
296.115	3.4
296.486	3.4
296.857	3.41
297.228	3.42
297.599	3.43
297.97	3.43
298.34	3.42
298.711	3.42
299.082	3.42
299.452	3.42
299.823	3.43
300.194	3.44
300.564	3.43
300.935	3.44
301.305	3.45
301.676	3.45
302.046	3.45
302.416	3.44
302.787	3.42
303.157	3.42
303.527	3.42
303.897	3.41
304.267	3.42
304.637	3.4
305.008	3.38
305.378	3.38
305.748	3.38
306.117	3.37
306.487	3.39
306.857	3.4
307.227	3.41
307.597	3.42
307.967	3.42
308.336	3.41
308.706	3.39
309.076	3.38
309.445	3.37
309.815	3.36
310.184	3.33
310.554	3.32
310.923	3.32
311.293	3.3
311.662	3.31
312.031	3.3
312.401	3.3
312.77	3.3
313.139	3.3
313.508	3.3
313.877	3.3
314.246	3.31
314.616	3.31
314.985	3.31
315.353	3.31
315.722	3.3
316.091	3.29
316.46	3.27
316.829	3.28
317.198	3.28
317.567	3.29
317.935	3.31
318.304	3.31
318.672	3.31
319.041	3.32
319.41	3.3
319.778	3.33
320.147	3.32
320.515	3.31
320.883	3.3
321.252	3.27
321.62	3.25
321.988	3.26
322.357	3.25
322.725	3.26
323.093	3.25
323.461	3.25
323.829	3.27
324.197	3.26
324.565	3.26
324.933	3.27
325.301	3.28
325.669	3.29
326.037	3.28
326.405	3.28
326.772	3.27
327.14	3.26
327.508	3.24
327.875	3.23
328.243	3.23
328.61	3.22
328.978	3.22
329.346	3.21
329.713	3.22
330.08	3.21
330.448	3.19
330.815	3.2
331.182	3.2
331.55	3.2
331.917	3.19
332.284	3.18
332.651	3.19
333.018	3.19
333.385	3.18
333.752	3.19
334.119	3.18
334.486	3.18
334.853	3.17
335.22	3.17
335.587	3.18
335.954	3.19
336.32	3.19
336.687	3.19
337.054	3.18
337.42	3.18
337.787	3.16
338.153	3.16
338.52	3.16
338.886	3.15
339.253	3.16
339.619	3.15
339.986	3.15
340.352	3.15
340.718	3.14
341.084	3.14
341.451	3.14
341.817	3.15
342.183	3.15
342.549	3.16
342.915	3.16
343.281	3.16
343.647	3.16
344.013	3.15
344.379	3.15
344.745	3.15
345.11	3.15
345.476	3.16
345.842	3.15
346.208	3.16
346.573	3.15
346.939	3.14
347.304	3.15
347.67	3.13
348.035	3.14
348.401	3.15
348.766	3.14
349.132	3.14
349.497	3.14
349.862	3.15
350.228	3.15
350.593	3.15
350.958	3.14
351.323	3.15
351.688	3.15
352.053	3.15
352.418	3.16
352.783	3.16
353.148	3.16
353.513	3.16
353.878	3.15
354.243	3.14
354.608	3.14
354.972	3.14
355.337	3.14
355.702	3.15
356.066	3.15
356.431	3.15
356.795	3.14
357.16	3.14
357.524	3.15
357.889	3.14
358.253	3.14
358.618	3.13
358.982	3.13
359.346	3.14
359.71	3.13
360.075	3.13
360.439	3.12
360.803	3.12
361.167	3.12
361.531	3.12
361.895	3.12
362.259	3.11
362.623	3.11
362.987	3.1
363.351	3.1
363.714	3.09
364.078	3.09
364.442	3.09
364.806	3.09
365.169	3.09
365.533	3.08
365.896	3.09
366.26	3.1
366.623	3.09
366.987	3.09
367.35	3.08
367.714	3.08
368.077	3.08
368.44	3.08
368.803	3.08
369.167	3.08
369.53	3.08
369.893	3.08
370.256	3.08
370.619	3.07
370.982	3.07
371.345	3.07
371.708	3.08
372.071	3.08
372.434	3.08
372.797	3.08
373.159	3.08
373.522	3.09
373.885	3.09
374.247	3.08
374.61	3.08
374.973	3.09
375.335	3.09
375.698	3.09
376.06	3.09
376.423	3.09
376.785	3.08
377.147	3.09
377.51	3.09
377.872	3.09
378.234	3.08
378.596	3.09
378.958	3.09
379.321	3.09
379.683	3.09
380.045	3.08
380.407	3.09
380.769	3.08
381.13	3.08
381.492	3.08
381.854	3.08
382.216	3.08
382.578	3.07
382.939	3.07
383.301	3.07
383.663	3.07
384.024	3.07
384.386	3.07
384.747	3.08
385.109	3.08
385.47	3.08
385.832	3.08
386.193	3.07
386.554	3.07
386.916	3.07
387.277	3.06
387.638	3.06
387.999	3.06
388.36	3.06
388.721	3.06
389.082	3.06
389.443	3.05
389.804	3.05
390.165	3.05
390.526	3.06
390.887	3.05
391.248	3.06
391.609	3.06
391.969	3.06
392.33	3.06
392.691	3.06
393.051	3.06
393.412	3.06
393.772	3.07
394.133	3.07
394.493	3.07
394.854	3.07
395.214	3.07
395.574	3.07
395.935	3.07
396.295	3.07
396.655	3.07
397.015	3.07
397.376	3.07
397.736	3.07
398.096	3.07
398.456	3.07
398.816	3.08
399.176	3.08
399.535	3.08
399.895	3.08
400.255	3.07
400.615	3.07
400.975	3.08
401.334	3.07
401.694	3.08
402.054	3.09
402.413	3.08
402.773	3.08
403.132	3.08
403.492	3.08
403.851	3.09
404.211	3.09
404.57	3.09
404.929	3.09
405.288	3.09
405.648	3.1
406.007	3.1
406.366	3.09
406.725	3.09
407.084	3.1
407.443	3.09
407.802	3.1
408.161	3.1
408.52	3.09
408.879	3.1
409.238	3.1
409.596	3.1
409.955	3.1
410.314	3.1
410.673	3.11
411.031	3.11
411.39	3.12
411.748	3.13
412.107	3.13
412.465	3.14
412.824	3.16
413.182	3.17
413.54	3.19
413.899	3.21
414.257	3.24
414.615	3.28
414.974	3.3
415.332	3.34
415.69	3.37
416.048	3.39
416.406	3.42
416.764	3.45
417.122	3.47
417.48	3.5
417.838	3.53
418.195	3.55
418.553	3.57
418.911	3.58
419.269	3.58
419.626	3.58
419.984	3.58
420.342	3.57
420.699	3.56
421.057	3.55
421.414	3.54
421.772	3.53
422.129	3.52
422.486	3.52
422.844	3.52
423.201	3.52
423.558	3.52
423.915	3.51
424.273	3.51
424.63	3.51
424.987	3.51
425.344	3.52
425.701	3.51
426.058	3.51
426.415	3.51
426.772	3.52
427.128	3.52
427.485	3.51
427.842	3.5
428.199	3.49
428.555	3.47
428.912	3.46
429.269	3.44
429.625	3.42
429.982	3.39
430.338	3.37
430.695	3.36
431.051	3.33
431.407	3.31
431.764	3.3
432.12	3.28
432.476	3.27
432.832	3.27
433.189	3.27
433.545	3.27
433.901	3.28
434.257	3.3
434.613	3.32
434.969	3.34
435.325	3.36
435.681	3.39
436.036	3.41
436.392	3.43
436.748	3.44
437.104	3.45
437.459	3.46
437.815	3.48
438.171	3.5
438.526	3.52
438.882	3.54
439.237	3.57
439.593	3.6
439.948	3.63
440.304	3.66
440.659	3.68
441.014	3.7
441.369	3.72
441.725	3.73
442.08	3.75
442.435	3.76
442.79	3.76
443.145	3.77
443.5	3.77
443.855	3.77
444.21	3.77
444.565	3.77
444.92	3.76
445.275	3.75
445.629	3.75
445.984	3.74
446.339	3.73
446.693	3.72
447.048	3.71
447.403	3.7
447.757	3.68
448.112	3.66
448.466	3.64
448.82	3.62
449.175	3.61
449.529	3.59
449.883	3.58
450.238	3.56
450.592	3.56
450.946	3.55
451.3	3.55
451.654	3.55
452.008	3.56
452.362	3.56
452.716	3.56
453.07	3.56
453.424	3.56
453.778	3.55
454.132	3.55
454.486	3.54
454.839	3.53
455.193	3.51
455.547	3.5
455.9	3.48
456.254	3.46
456.607	3.44
456.961	3.42
457.314	3.4
457.668	3.39
458.021	3.39
458.375	3.38
458.728	3.38
459.081	3.39
459.434	3.39
459.787	3.4
460.141	3.41
460.494	3.41
460.847	3.42
461.2	3.43
461.553	3.43
461.906	3.43
462.259	3.44
462.611	3.44
462.964	3.44
463.317	3.44
463.67	3.45
464.022	3.45
464.375	3.46
464.728	3.46
465.08	3.46
465.433	3.46
465.785	3.45
466.138	3.44
466.49	3.43
466.843	3.41
467.195	3.39
467.547	3.37
467.899	3.35
468.252	3.33
468.604	3.31
468.956	3.29
469.308	3.28
469.66	3.27
470.012	3.26
470.364	3.26
470.716	3.27
471.068	3.28
471.42	3.29
471.772	3.31
472.123	3.32
472.475	3.33
472.827	3.33
473.178	3.34
473.53	3.35
473.882	3.36
474.233	3.38
474.585	3.4
474.936	3.45
475.288	3.53
475.639	3.62
475.99	3.72
476.342	3.84
476.693	3.97
477.044	4.1
477.395	4.24
477.746	4.39
478.097	4.52
478.448	4.67
478.8	4.81
479.15	4.94
479.501	5.07
479.852	5.18
480.203	5.29
480.554	5.39
480.905	5.48
481.255	5.57
481.606	5.66
481.957	5.75
482.307	5.83
482.658	5.9
483.009	5.97
483.359	6.05
483.709	6.11
484.06	6.18
484.41	6.25
484.761	6.31
485.111	6.37
485.461	6.42
485.811	6.48
486.162	6.52
486.512	6.57
486.862	6.6
487.212	6.62
487.562	6.64
487.912	6.65
488.262	6.65
488.612	6.65
488.961	6.63
489.311	6.6
489.661	6.54
490.011	6.47
490.36	6.38
490.71	6.28
491.06	6.17
491.409	6.06
491.759	5.93
492.108	5.81
492.458	5.68
492.807	5.55
493.157	5.41
493.506	5.28
493.855	5.15
494.204	5.04
494.554	4.92
494.903	4.82
495.252	4.72
495.601	4.62
495.95	4.53
496.299	4.44
496.648	4.35
496.997	4.27
497.346	4.2
497.695	4.12
498.043	4.05
498.392	3.98
498.741	3.91
499.09	3.85
499.438	3.78
499.787	3.73
500.135	3.67
500.484	3.62
500.832	3.58
501.181	3.54
501.529	3.52
501.878	3.51
502.226	3.5
502.574	3.5
502.923	3.49
503.271	3.49
503.619	3.49
503.967	3.49
504.315	3.48
504.663	3.48
505.011	3.48
505.359	3.47
505.707	3.47
506.055	3.46
506.403	3.46
506.751	3.46
507.098	3.46
507.446	3.46
507.794	3.46
508.141	3.47
508.489	3.48
508.837	3.49
509.184	3.5
509.531	3.51
509.879	3.51
510.226	3.52
510.574	3.53
510.921	3.55
511.268	3.56
511.616	3.58
511.963	3.59
512.31	3.62
512.657	3.63
513.004	3.65
513.351	3.66
513.698	3.67
514.045	3.68
514.392	3.68
514.739	3.68
515.086	3.68
515.432	3.68
515.779	3.67
516.126	3.67
516.473	3.67
516.819	3.67
517.166	3.68
517.512	3.68
517.859	3.69
518.205	3.7
518.552	3.72
518.898	3.74
519.245	3.77
519.591	3.82
519.937	3.87
520.283	3.95
520.629	4.03
520.976	4.12
521.322	4.21
521.668	4.31
522.014	4.41
522.36	4.51
522.706	4.61
523.052	4.7
523.398	4.79
523.743	4.86
524.089	4.93
524.435	4.99
524.781	5.05
525.126	5.09
525.472	5.14
525.817	5.18
526.163	5.22
526.509	5.26
526.854	5.29
527.199	5.33
527.545	5.36
527.89	5.4
528.235	5.44
528.581	5.48
528.926	5.51
529.271	5.54
529.616	5.57
529.961	5.6
530.306	5.62
530.651	5.64
530.996	5.66
531.341	5.66
531.686	5.67
532.031	5.67
532.376	5.67
532.721	5.68
533.065	5.68
533.41	5.69
533.755	5.69
534.099	5.68
534.444	5.66
534.788	5.63
535.133	5.6
535.477	5.56
535.822	5.52
536.166	5.48
536.51	5.42
536.855	5.36
537.199	5.3
537.543	5.23
537.887	5.18
538.231	5.12
538.576	5.08
538.92	5.03
539.264	4.99
539.608	4.94
539.951	4.89
540.295	4.83
540.639	4.78
540.983	4.73
541.327	4.68
541.671	4.62
542.014	4.57
542.358	4.53
542.701	4.49
543.045	4.47
543.389	4.45
543.732	4.43
544.075	4.41
544.419	4.39
544.762	4.39
545.105	4.37
545.449	4.37
545.792	4.36
546.135	4.35
546.478	4.34
546.821	4.32
547.165	4.3
547.508	4.26
547.851	4.23
548.194	4.18
548.536	4.13
548.879	4.08
549.222	4.02
549.565	3.96
549.908	3.91
550.25	3.85
550.593	3.8
550.936	3.76
551.278	3.73
551.621	3.7
551.963	3.68
552.306	3.65
552.648	3.64
552.991	3.63
553.333	3.62
553.675	3.61
554.017	3.61
554.36	3.61
554.702	3.61
555.044	3.62
555.386	3.63
555.728	3.65
556.07	3.65
556.412	3.67
556.754	3.67
557.096	3.67
557.438	3.67
557.78	3.67
558.121	3.68
558.463	3.68
558.805	3.68
559.147	3.68
559.488	3.68
559.83	3.68
560.171	3.68
560.513	3.68
560.854	3.68
561.196	3.68
561.537	3.68
561.878	3.68
562.22	3.68
562.561	3.68
562.902	3.68
563.243	3.68
563.584	3.68
563.925	3.68
564.266	3.68
564.607	3.68
564.948	3.68
565.289	3.69
565.63	3.69
565.971	3.69
566.312	3.7
566.653	3.7
566.993	3.7
567.334	3.7
567.675	3.71
568.015	3.71
568.356	3.71
568.696	3.71
569.037	3.71
569.377	3.71
569.718	3.71
570.058	3.72
570.398	3.71
570.739	3.72
571.079	3.72
571.419	3.72
571.759	3.72
572.099	3.72
572.439	3.72
572.779	3.72
573.119	3.72
573.459	3.72
573.799	3.72
574.139	3.72
574.479	3.72
574.819	3.73
575.158	3.73
575.498	3.73
575.838	3.73
576.177	3.73
576.517	3.73
576.856	3.73
577.196	3.73
577.535	3.73
577.875	3.73
578.214	3.73
578.553	3.73
578.893	3.73
579.232	3.73
579.571	3.72
579.91	3.73
580.25	3.72
580.589	3.72
580.928	3.71
581.267	3.71
581.606	3.71
581.945	3.71
582.283	3.71
582.622	3.71
582.961	3.72
583.3	3.72
583.639	3.73
583.977	3.72
584.316	3.72
584.654	3.72
584.993	3.71
585.332	3.71
585.67	3.72
586.008	3.71
586.347	3.72
586.685	3.72
587.024	3.72
587.362	3.72
587.7	3.72
588.038	3.72
588.376	3.72
588.715	3.72
589.053	3.71
589.391	3.72
589.729	3.72
590.067	3.72
590.404	3.73
590.742	3.73
591.08	3.73
591.418	3.73
591.756	3.73
592.093	3.73
592.431	3.74
592.769	3.74
593.106	3.75
593.444	3.75
593.781	3.75
594.119	3.75
594.456	3.74
594.793	3.74
595.131	3.74
595.468	3.74
595.805	3.74
596.143	3.74
596.48	3.73
596.817	3.73
597.154	3.73
597.491	3.73
597.828	3.73
598.165	3.73
598.502	3.74
598.839	3.74
599.176	3.75
599.512	3.75
599.849	3.75
600.186	3.75
600.523	3.76
600.859	3.76
601.196	3.76
601.532	3.76
601.869	3.76
602.205	3.77
602.542	3.77
602.878	3.77
603.215	3.77
603.551	3.77
603.887	3.77
604.223	3.77
604.56	3.77
604.896	3.77
605.232	3.77
605.568	3.77
605.904	3.77
606.24	3.77
606.576	3.77
606.912	3.77
607.248	3.76
607.583	3.77
607.919	3.77
608.255	3.77
608.591	3.77
608.926	3.77
609.262	3.78
609.597	3.78
609.933	3.78
610.268	3.78
610.604	3.78
610.939	3.78
611.275	3.78
611.61	3.78
611.945	3.78
612.281	3.78
612.616	3.78
612.951	3.77
613.286	3.77
613.621	3.77
613.956	3.76
614.291	3.76
614.626	3.76
614.961	3.76
615.296	3.76
615.631	3.76
615.966	3.76
616.3	3.76
616.635	3.75
616.97	3.76
617.304	3.76
617.639	3.75
617.973	3.75
618.308	3.75
618.642	3.75
618.977	3.75
619.311	3.75
619.646	3.75
619.98	3.76
620.314	3.76
620.648	3.76
620.983	3.77
621.317	3.77
621.651	3.77
621.985	3.77
622.319	3.77
622.653	3.78
622.987	3.78
623.321	3.78
623.655	3.78
623.988	3.79
624.322	3.79
624.656	3.79
624.99	3.79
625.323	3.79
625.657	3.8
625.99	3.79
626.324	3.79
626.657	3.79
626.991	3.79
627.324	3.79
627.658	3.79
627.991	3.79
628.324	3.79
628.657	3.79
628.991	3.79
629.324	3.8
629.657	3.8
629.99	3.79
630.323	3.8
630.656	3.8
630.989	3.8
631.322	3.81
631.655	3.81
631.987	3.81
632.32	3.81
632.653	3.82
632.986	3.82
633.318	3.82
633.651	3.83
633.984	3.82
634.316	3.83
634.649	3.82
634.981	3.83
635.313	3.83
635.646	3.83
635.978	3.83
636.31	3.83
636.643	3.83
636.975	3.84
637.307	3.84
637.639	3.84
637.971	3.84
638.303	3.83
638.635	3.83
638.967	3.82
639.299	3.82
639.631	3.83
639.963	3.84
640.295	3.84
640.626	3.84
640.958	3.86
641.29	3.86
641.621	3.87
641.953	3.87
642.285	3.88
642.616	3.88
642.948	3.88
643.279	3.89
643.61	3.9
643.942	3.9
644.273	3.9
644.604	3.9
644.936	3.9
645.267	3.9
645.598	3.9
645.929	3.9
646.26	3.89
646.591	3.88
646.922	3.89
647.253	3.88
647.584	3.88
647.915	3.88
648.245	3.89
648.576	3.89
648.907	3.89
649.238	3.89
649.568	3.89
649.899	3.89
650.229	3.9
650.56	3.9
650.89	3.9
651.221	3.9
651.551	3.9
651.882	3.91
652.212	3.91
652.542	3.91
652.872	3.91
653.203	3.91
653.533	3.91
653.863	3.9
654.193	3.91
654.523	3.9
654.853	3.9
655.183	3.9
655.513	3.9
655.843	3.9
656.172	3.9
656.502	3.9
656.832	3.9
657.162	3.9
657.491	3.9
657.821	3.9
658.15	3.89
658.48	3.9
658.809	3.9
659.139	3.9
659.468	3.9
659.798	3.92
660.127	3.92
660.456	3.93
660.785	3.92
661.115	3.93
661.444	3.95
661.773	3.95
662.102	3.95
662.431	3.94
662.76	3.95
663.089	3.95
663.418	3.95
663.747	3.95
664.076	3.96
664.404	3.96
664.733	3.97
665.062	3.98
665.39	3.98
665.719	3.98
666.048	3.99
666.376	3.99
666.705	4
667.033	4.01
667.362	4.01
667.69	4.01
668.018	4.02
668.347	4.03
668.675	4.04
669.003	4.04
669.331	4.03
669.659	4.03
669.987	4.03
670.315	4.04
670.643	4.05
670.971	4.04
671.299	4.05
671.627	4.04
671.955	4.04
672.283	4.04
672.61	4.05
672.938	4.04
673.266	4.04
673.593	4.04
673.921	4.03
674.249	4.05
674.576	4.04
674.904	4.03
675.231	4.03
675.558	4.03
675.886	4.04
676.213	4.03
676.54	4.03
676.867	4.03
677.195	4.04
677.522	4.03
677.849	4.04
678.176	4.04
678.503	4.03
678.83	4.04
679.157	4.03
679.484	4.04
679.81	4.04
680.137	4.04
680.464	4.04
680.791	4.04
681.117	4.05
681.444	4.04
681.771	4.04
