Data from UWBM53665_Reflection_00002.txt Node
Date: Sun May 02 13:12:04 EDT 2021
User: vgr7
Spectrometer: USB2G7710
Scans to average: 10
Trigger mode: 4
Integration Time (sec): 1.000000E-1
Electric dark correction enabled: true
Boxcar width: 20
XAxis mode: Wavelengths
Number of Pixels in Spectrum: 2048
>>>>>Begin Spectral Data<<<<<
177.721	101.96
178.105	102.56
178.488	102.69
178.871	102.02
179.254	101.52
179.636	98.63
180.019	95.98
180.402	94.52
180.785	89.78
181.168	87.09
181.55	82.9
181.933	115.95
182.316	115.92
182.698	117.3
183.081	120.28
183.463	121.17
183.846	122.09
184.228	122.7
184.611	124.8
184.993	128.53
185.376	129.09
185.758	-111.42
186.14	-56.5
186.522	-19.15
186.904	-1.56
187.287	9.18
187.669	11.74
188.051	11.14
188.433	14.03
188.815	13.86
189.197	14.77
189.579	16.65
189.961	17.04
190.342	14.5
190.724	16.59
191.106	16.48
191.488	19
191.869	13.59
192.251	14.65
192.633	11.64
193.014	9.31
193.396	6.75
193.777	11.82
194.159	12.61
194.54	11.77
194.922	11.24
195.303	12.83
195.684	14.04
196.065	13.44
196.447	13.38
196.828	13.27
197.209	14.85
197.59	5.1
197.971	2.15
198.352	4.19
198.733	6.11
199.114	4.69
199.495	3.89
199.876	3.93
200.257	4.01
200.638	3.93
201.018	-2.13
201.399	-1.91
201.78	-2.41
202.16	-3.79
202.541	-1.79
202.922	-2.8
203.302	-5.06
203.683	-4.91
204.063	-5.07
204.444	-4.64
204.824	-1.76
205.204	-0.87
205.585	7.71
205.965	7.51
206.345	8.06
206.725	2.88
207.106	1.56
207.486	2.05
207.866	1.43
208.246	1.55
208.626	2.8
209.006	8.6
209.386	4.84
209.766	4.7
210.145	4.65
210.525	4.32
210.905	4.88
211.285	6.71
211.664	6.55
212.044	7.44
212.424	6.67
212.803	1.01
213.183	3.18
213.562	3.67
213.942	3.08
214.321	1.45
214.701	0.85
215.08	3.87
215.459	4.45
215.838	2.69
216.218	3.18
216.597	2.19
216.976	-0.9
217.355	-1.62
217.734	-0.97
218.113	-2.56
218.492	-1.4
218.871	-0.76
219.25	-1.39
219.629	-1.63
220.008	-1.05
220.387	-1.8
220.766	-0.9
221.144	-2.09
221.523	-0.45
221.902	0.36
222.28	1.39
222.659	2.95
223.037	2.77
223.416	3.47
223.794	4.09
224.173	4.39
224.551	3.97
224.929	4.58
225.308	4.93
225.686	4.48
226.064	4.77
226.442	4.69
226.821	3.7
227.199	3.21
227.577	2.85
227.955	2.82
228.333	2.94
228.711	3.21
229.089	3.81
229.467	3.22
229.845	4.06
230.222	4.2
230.6	4.11
230.978	4.07
231.356	3.66
231.733	3.41
232.111	3.42
232.488	3.56
232.866	3.83
233.243	3.53
233.621	3.92
233.998	3.64
234.376	3.91
234.753	4.17
235.13	4.08
235.508	4.48
235.885	4.52
236.262	4.47
236.639	4.58
237.016	4.52
237.393	4.47
237.77	4.28
238.147	4.14
238.524	4.16
238.901	4.22
239.278	4.22
239.655	4.25
240.032	4.16
240.409	4.17
240.785	4.1
241.162	4.17
241.539	4.12
241.915	4.14
242.292	4.13
242.668	4.1
243.045	4.06
243.421	3.92
243.798	3.88
244.174	3.86
244.551	3.79
244.927	3.61
245.303	3.54
245.679	3.54
246.056	3.48
246.432	3.44
246.808	3.24
247.184	3.27
247.56	3.26
247.936	3.26
248.312	3.24
248.688	3.28
249.064	3.23
249.44	3.23
249.815	3.22
250.191	3.16
250.567	3.18
250.943	3.25
251.318	3.28
251.694	3.23
252.069	3.18
252.445	3.19
252.82	3.27
253.196	3.29
253.571	3.26
253.947	3.35
254.322	3.31
254.697	3.47
255.073	3.44
255.448	3.41
255.823	3.39
256.198	3.37
256.573	3.18
256.948	3.17
257.323	3.18
257.698	3.13
258.073	3.13
258.448	3.02
258.823	3.03
259.198	3.02
259.573	3.05
259.948	3.08
260.322	3.07
260.697	3.07
261.072	3.07
261.446	3.07
261.821	3.05
262.195	3.01
262.57	2.97
262.944	2.95
263.319	2.94
263.693	2.95
264.067	2.96
264.442	3.07
264.816	3.06
265.19	3.03
265.564	3.09
265.938	3.04
266.313	3.09
266.687	3.03
267.061	3.01
267.435	3
267.809	2.98
268.183	2.95
268.556	2.97
268.93	2.97
269.304	2.95
269.678	2.91
270.051	2.86
270.425	2.85
270.799	2.87
271.172	2.85
271.546	2.83
271.919	2.84
272.293	2.8
272.666	2.81
273.04	2.82
273.413	2.74
273.787	2.73
274.16	2.72
274.533	2.76
274.906	2.71
275.279	2.73
275.653	2.71
276.026	2.7
276.399	2.66
276.772	2.66
277.145	2.68
277.518	2.71
277.891	2.75
278.263	2.77
278.636	2.76
279.009	2.79
279.382	2.77
279.755	2.7
280.127	2.7
280.5	2.71
280.872	2.69
281.245	2.8
281.617	2.81
281.99	2.84
282.362	2.87
282.735	2.86
283.107	2.86
283.479	2.88
283.852	2.89
284.224	2.91
284.596	2.88
284.968	2.77
285.34	2.77
285.713	2.77
286.085	2.7
286.457	2.71
286.829	2.7
287.201	2.7
287.572	2.77
287.944	2.77
288.316	2.79
288.688	2.83
289.06	2.83
289.431	2.84
289.803	2.83
290.175	2.85
290.546	2.86
290.918	2.87
291.289	2.83
291.661	2.85
292.032	2.81
292.403	2.83
292.775	2.91
293.146	2.91
293.517	2.94
293.889	3.02
294.26	3
294.631	3.02
295.002	3.06
295.373	3.1
295.744	3.08
296.115	3.09
296.486	3.03
296.857	3.03
297.228	3.04
297.599	3.04
297.97	3.03
298.34	3.04
298.711	2.99
299.082	2.98
299.452	3.01
299.823	3.06
300.194	3.08
300.564	3.07
300.935	3.07
301.305	3.06
301.676	3.02
302.046	3.01
302.416	3.01
302.787	3.01
303.157	2.95
303.527	2.96
303.897	2.95
304.267	2.95
304.637	2.95
305.008	2.97
305.378	2.98
305.748	2.95
306.117	3.02
306.487	3.07
306.857	3.12
307.227	3.13
307.597	3.11
307.967	3.11
308.336	3.1
308.706	3.1
309.076	3.1
309.445	3.1
309.815	2.99
310.184	2.99
310.554	2.92
310.923	2.95
311.293	2.96
311.662	2.97
312.031	2.95
312.401	2.93
312.77	2.9
313.139	2.89
313.508	2.91
313.877	2.85
314.246	2.83
314.616	2.8
314.985	2.74
315.353	2.75
315.722	2.75
316.091	2.75
316.46	2.74
316.829	2.78
317.198	2.79
317.567	2.92
317.935	2.93
318.304	2.97
318.672	3
319.041	3
319.41	3.02
319.778	3.05
320.147	3.06
320.515	3.05
320.883	3.06
321.252	2.99
321.62	3.04
321.988	3.03
322.357	3.04
322.725	3.09
323.093	3.1
323.461	3.09
323.829	3.11
324.197	3.09
324.565	3.07
324.933	3.07
325.301	3.04
325.669	3.05
326.037	3.05
326.405	3
326.772	2.99
327.14	2.99
327.508	2.97
327.875	2.96
328.243	2.97
328.61	2.93
328.978	2.94
329.346	2.95
329.713	2.91
330.08	2.91
330.448	2.9
330.815	2.89
331.182	2.88
331.55	2.88
331.917	2.88
332.284	2.87
332.651	2.88
333.018	2.88
333.385	2.88
333.752	2.88
334.119	2.89
334.486	2.89
334.853	2.86
335.22	2.85
335.587	2.84
335.954	2.83
336.32	2.85
336.687	2.84
337.054	2.83
337.42	2.84
337.787	2.83
338.153	2.85
338.52	2.88
338.886	2.9
339.253	2.89
339.619	2.89
339.986	2.86
340.352	2.85
340.718	2.86
341.084	2.87
341.451	2.87
341.817	2.85
342.183	2.83
342.549	2.86
342.915	2.87
343.281	2.89
343.647	2.89
344.013	2.91
344.379	2.92
344.745	2.92
345.11	2.92
345.476	2.93
345.842	2.92
346.208	2.9
346.573	2.9
346.939	2.92
347.304	2.92
347.67	2.92
348.035	2.92
348.401	2.92
348.766	2.93
349.132	2.94
349.497	2.95
349.862	2.95
350.228	2.97
350.593	2.97
350.958	2.97
351.323	2.96
351.688	2.97
352.053	2.96
352.418	2.95
352.783	2.94
353.148	2.93
353.513	2.92
353.878	2.92
354.243	2.92
354.608	2.91
354.972	2.92
355.337	2.92
355.702	2.9
356.066	2.91
356.431	2.89
356.795	2.89
357.16	2.88
357.524	2.87
357.889	2.87
358.253	2.86
358.618	2.87
358.982	2.89
359.346	2.89
359.71	2.89
360.075	2.89
360.439	2.89
360.803	2.88
361.167	2.87
361.531	2.89
361.895	2.88
362.259	2.87
362.623	2.87
362.987	2.86
363.351	2.87
363.714	2.87
364.078	2.87
364.442	2.87
364.806	2.88
365.169	2.86
365.533	2.86
365.896	2.85
366.26	2.85
366.623	2.84
366.987	2.84
367.35	2.85
367.714	2.85
368.077	2.85
368.44	2.85
368.803	2.85
369.167	2.85
369.53	2.85
369.893	2.85
370.256	2.86
370.619	2.87
370.982	2.87
371.345	2.86
371.708	2.87
372.071	2.87
372.434	2.87
372.797	2.89
373.159	2.9
373.522	2.9
373.885	2.88
374.247	2.87
374.61	2.87
374.973	2.86
375.335	2.86
375.698	2.86
376.06	2.87
376.423	2.86
376.785	2.87
377.147	2.86
377.51	2.87
377.872	2.86
378.234	2.86
378.596	2.88
378.958	2.89
379.321	2.89
379.683	2.89
380.045	2.89
380.407	2.89
380.769	2.88
381.13	2.89
381.492	2.89
381.854	2.9
382.216	2.89
382.578	2.89
382.939	2.91
383.301	2.9
383.663	2.91
384.024	2.9
384.386	2.91
384.747	2.9
385.109	2.89
385.47	2.89
385.832	2.89
386.193	2.89
386.554	2.88
386.916	2.89
387.277	2.88
387.638	2.89
387.999	2.89
388.36	2.9
388.721	2.9
389.082	2.89
389.443	2.89
389.804	2.9
390.165	2.9
390.526	2.9
390.887	2.89
391.248	2.89
391.609	2.89
391.969	2.89
392.33	2.9
392.691	2.9
393.051	2.9
393.412	2.89
393.772	2.9
394.133	2.9
394.493	2.89
394.854	2.89
395.214	2.89
395.574	2.89
395.935	2.88
396.295	2.88
396.655	2.88
397.015	2.88
397.376	2.87
397.736	2.88
398.096	2.88
398.456	2.88
398.816	2.9
399.176	2.88
399.535	2.89
399.895	2.9
400.255	2.89
400.615	2.9
400.975	2.91
401.334	2.91
401.694	2.91
402.054	2.91
402.413	2.89
402.773	2.89
403.132	2.9
403.492	2.9
403.851	2.9
404.211	2.91
404.57	2.92
404.929	2.92
405.288	2.92
405.648	2.93
406.007	2.94
406.366	2.94
406.725	2.95
407.084	2.95
407.443	2.95
407.802	2.94
408.161	2.94
408.52	2.94
408.879	2.94
409.238	2.94
409.596	2.94
409.955	2.95
410.314	2.95
410.673	2.95
411.031	2.96
411.39	2.96
411.748	2.97
412.107	2.97
412.465	2.98
412.824	3
413.182	3.01
413.54	3.03
413.899	3.05
414.257	3.07
414.615	3.1
414.974	3.12
415.332	3.15
415.69	3.18
416.048	3.2
416.406	3.23
416.764	3.26
417.122	3.28
417.48	3.31
417.838	3.33
418.195	3.35
418.553	3.37
418.911	3.38
419.269	3.38
419.626	3.38
419.984	3.38
420.342	3.37
420.699	3.35
421.057	3.34
421.414	3.33
421.772	3.32
422.129	3.31
422.486	3.31
422.844	3.3
423.201	3.3
423.558	3.3
423.915	3.3
424.273	3.3
424.63	3.3
424.987	3.3
425.344	3.3
425.701	3.3
426.058	3.3
426.415	3.3
426.772	3.29
427.128	3.29
427.485	3.28
427.842	3.28
428.199	3.27
428.555	3.26
428.912	3.24
429.269	3.22
429.625	3.21
429.982	3.19
430.338	3.17
430.695	3.15
431.051	3.13
431.407	3.11
431.764	3.1
432.12	3.08
432.476	3.08
432.832	3.07
433.189	3.08
433.545	3.08
433.901	3.09
434.257	3.11
434.613	3.13
434.969	3.15
435.325	3.16
435.681	3.2
436.036	3.21
436.392	3.23
436.748	3.23
437.104	3.24
437.459	3.25
437.815	3.27
438.171	3.28
438.526	3.3
438.882	3.32
439.237	3.35
439.593	3.38
439.948	3.4
440.304	3.43
440.659	3.45
441.014	3.47
441.369	3.49
441.725	3.5
442.08	3.51
442.435	3.52
442.79	3.53
443.145	3.53
443.5	3.54
443.855	3.54
444.21	3.54
444.565	3.53
444.92	3.53
445.275	3.53
445.629	3.52
445.984	3.51
446.339	3.5
446.693	3.5
447.048	3.49
447.403	3.48
447.757	3.46
448.112	3.44
448.466	3.42
448.82	3.41
449.175	3.39
449.529	3.38
449.883	3.37
450.238	3.34
450.592	3.34
450.946	3.34
451.3	3.34
451.654	3.35
452.008	3.35
452.362	3.35
452.716	3.36
453.07	3.36
453.424	3.35
453.778	3.35
454.132	3.34
454.486	3.33
454.839	3.32
455.193	3.3
455.547	3.29
455.9	3.27
456.254	3.25
456.607	3.23
456.961	3.21
457.314	3.19
457.668	3.19
458.021	3.18
458.375	3.18
458.728	3.18
459.081	3.18
459.434	3.18
459.787	3.18
460.141	3.19
460.494	3.2
460.847	3.2
461.2	3.2
461.553	3.21
461.906	3.22
462.259	3.22
462.611	3.22
462.964	3.23
463.317	3.23
463.67	3.24
464.022	3.24
464.375	3.24
464.728	3.25
465.08	3.25
465.433	3.25
465.785	3.24
466.138	3.23
466.49	3.22
466.843	3.2
467.195	3.19
467.547	3.17
467.899	3.16
468.252	3.13
468.604	3.12
468.956	3.1
469.308	3.09
469.66	3.09
470.012	3.08
470.364	3.08
470.716	3.08
471.068	3.09
471.42	3.11
471.772	3.12
472.123	3.13
472.475	3.14
472.827	3.15
473.178	3.16
473.53	3.17
473.882	3.19
474.233	3.2
474.585	3.24
474.936	3.28
475.288	3.35
475.639	3.43
475.99	3.54
476.342	3.66
476.693	3.78
477.044	3.9
477.395	4.03
477.746	4.17
478.097	4.3
478.448	4.44
478.8	4.57
479.15	4.69
479.501	4.81
479.852	4.92
480.203	5.01
480.554	5.1
480.905	5.2
481.255	5.28
481.606	5.37
481.957	5.44
482.307	5.51
482.658	5.59
483.009	5.65
483.359	5.72
483.709	5.78
484.06	5.84
484.41	5.91
484.761	5.96
485.111	6.02
485.461	6.07
485.811	6.12
486.162	6.17
486.512	6.21
486.862	6.24
487.212	6.26
487.562	6.28
487.912	6.29
488.262	6.29
488.612	6.29
488.961	6.28
489.311	6.25
489.661	6.2
490.011	6.13
490.36	6.05
490.71	5.95
491.06	5.85
491.409	5.74
491.759	5.62
492.108	5.51
492.458	5.39
492.807	5.25
493.157	5.13
493.506	5
493.855	4.89
494.204	4.78
494.554	4.67
494.903	4.58
495.252	4.48
495.601	4.39
495.95	4.3
496.299	4.22
496.648	4.14
496.997	4.06
497.346	4
497.695	3.93
498.043	3.87
498.392	3.8
498.741	3.74
499.09	3.68
499.438	3.62
499.787	3.56
500.135	3.51
500.484	3.47
500.832	3.44
501.181	3.4
501.529	3.38
501.878	3.37
502.226	3.36
502.574	3.35
502.923	3.35
503.271	3.35
503.619	3.35
503.967	3.35
504.315	3.35
504.663	3.34
505.011	3.34
505.359	3.34
505.707	3.33
506.055	3.33
506.403	3.34
506.751	3.34
507.098	3.34
507.446	3.34
507.794	3.34
508.141	3.35
508.489	3.36
508.837	3.37
509.184	3.38
509.531	3.39
509.879	3.4
510.226	3.41
510.574	3.43
510.921	3.44
511.268	3.46
511.616	3.47
511.963	3.49
512.31	3.5
512.657	3.52
513.004	3.54
513.351	3.55
513.698	3.56
514.045	3.57
514.392	3.58
514.739	3.58
515.086	3.58
515.432	3.58
515.779	3.58
516.126	3.58
516.473	3.58
516.819	3.59
517.166	3.59
517.512	3.6
517.859	3.61
518.205	3.62
518.552	3.64
518.898	3.67
519.245	3.7
519.591	3.74
519.937	3.8
520.283	3.87
520.629	3.95
520.976	4.04
521.322	4.13
521.668	4.23
522.014	4.32
522.36	4.42
522.706	4.51
523.052	4.6
523.398	4.69
523.743	4.76
524.089	4.82
524.435	4.88
524.781	4.93
525.126	4.98
525.472	5.02
525.817	5.07
526.163	5.11
526.509	5.15
526.854	5.19
527.199	5.22
527.545	5.26
527.89	5.3
528.235	5.34
528.581	5.37
528.926	5.41
529.271	5.44
529.616	5.47
529.961	5.5
530.306	5.53
530.651	5.56
530.996	5.57
531.341	5.58
531.686	5.58
532.031	5.58
532.376	5.58
532.721	5.58
533.065	5.58
533.41	5.58
533.755	5.58
534.099	5.55
534.444	5.53
534.788	5.5
535.133	5.47
535.477	5.43
535.822	5.39
536.166	5.35
536.51	5.29
536.855	5.23
537.199	5.17
537.543	5.11
537.887	5.05
538.231	5
538.576	4.96
538.92	4.91
539.264	4.87
539.608	4.82
539.951	4.78
540.295	4.73
540.639	4.68
540.983	4.63
541.327	4.6
541.671	4.55
542.014	4.5
542.358	4.45
542.701	4.41
543.045	4.39
543.389	4.37
543.732	4.35
544.075	4.34
544.419	4.32
544.762	4.3
545.105	4.29
545.449	4.28
545.792	4.28
546.135	4.28
546.478	4.27
546.821	4.25
547.165	4.23
547.508	4.19
547.851	4.15
548.194	4.11
548.536	4.06
548.879	4.01
549.222	3.95
549.565	3.89
549.908	3.84
550.25	3.79
550.593	3.74
550.936	3.7
551.278	3.67
551.621	3.64
551.963	3.62
552.306	3.6
552.648	3.59
552.991	3.57
553.333	3.56
553.675	3.55
554.017	3.55
554.36	3.55
554.702	3.55
555.044	3.55
555.386	3.56
555.728	3.57
556.07	3.58
556.412	3.59
556.754	3.6
557.096	3.6
557.438	3.6
557.78	3.6
558.121	3.6
558.463	3.59
558.805	3.59
559.147	3.6
559.488	3.6
559.83	3.6
560.171	3.6
560.513	3.6
560.854	3.59
561.196	3.59
561.537	3.59
561.878	3.59
562.22	3.59
562.561	3.59
562.902	3.6
563.243	3.6
563.584	3.6
563.925	3.61
564.266	3.6
564.607	3.61
564.948	3.61
565.289	3.62
565.63	3.62
565.971	3.62
566.312	3.62
566.653	3.63
566.993	3.62
567.334	3.62
567.675	3.63
568.015	3.64
568.356	3.64
568.696	3.65
569.037	3.65
569.377	3.65
569.718	3.66
570.058	3.66
570.398	3.66
570.739	3.66
571.079	3.66
571.419	3.66
571.759	3.66
572.099	3.65
572.439	3.65
572.779	3.66
573.119	3.66
573.459	3.65
573.799	3.65
574.139	3.66
574.479	3.67
574.819	3.67
575.158	3.67
575.498	3.67
575.838	3.67
576.177	3.67
576.517	3.67
576.856	3.67
577.196	3.67
577.535	3.67
577.875	3.67
578.214	3.67
578.553	3.67
578.893	3.67
579.232	3.67
579.571	3.67
579.91	3.66
580.25	3.66
580.589	3.66
580.928	3.65
581.267	3.65
581.606	3.65
581.945	3.65
582.283	3.65
582.622	3.65
582.961	3.65
583.3	3.66
583.639	3.65
583.977	3.66
584.316	3.66
584.654	3.66
584.993	3.66
585.332	3.65
585.67	3.65
586.008	3.65
586.347	3.65
586.685	3.65
587.024	3.66
587.362	3.66
587.7	3.66
588.038	3.66
588.376	3.66
588.715	3.66
589.053	3.67
589.391	3.66
589.729	3.66
590.067	3.67
590.404	3.67
590.742	3.67
591.08	3.67
591.418	3.67
591.756	3.67
592.093	3.68
592.431	3.69
592.769	3.7
593.106	3.7
593.444	3.7
593.781	3.7
594.119	3.7
594.456	3.7
594.793	3.69
595.131	3.7
595.468	3.7
595.805	3.69
596.143	3.69
596.48	3.69
596.817	3.7
597.154	3.7
597.491	3.71
597.828	3.71
598.165	3.71
598.502	3.71
598.839	3.71
599.176	3.71
599.512	3.72
599.849	3.72
600.186	3.73
600.523	3.73
600.859	3.73
601.196	3.73
601.532	3.74
601.869	3.74
602.205	3.74
602.542	3.74
602.878	3.75
603.215	3.74
603.551	3.74
603.887	3.74
604.223	3.74
604.56	3.75
604.896	3.75
605.232	3.75
605.568	3.76
605.904	3.76
606.24	3.76
606.576	3.76
606.912	3.77
607.248	3.76
607.583	3.77
607.919	3.77
608.255	3.77
608.591	3.78
608.926	3.78
609.262	3.78
609.597	3.78
609.933	3.78
610.268	3.8
610.604	3.81
610.939	3.81
611.275	3.81
611.61	3.81
611.945	3.81
612.281	3.82
612.616	3.81
612.951	3.8
613.286	3.8
613.621	3.8
613.956	3.8
614.291	3.8
614.626	3.8
614.961	3.81
615.296	3.81
615.631	3.81
615.966	3.81
616.3	3.82
616.635	3.82
616.97	3.81
617.304	3.81
617.639	3.81
617.973	3.81
618.308	3.81
618.642	3.81
618.977	3.8
619.311	3.79
619.646	3.79
619.98	3.81
620.314	3.8
620.648	3.8
620.983	3.8
621.317	3.8
621.651	3.8
621.985	3.8
622.319	3.8
622.653	3.8
622.987	3.8
623.321	3.8
623.655	3.8
623.988	3.81
624.322	3.8
624.656	3.81
624.99	3.81
625.323	3.81
625.657	3.81
625.99	3.83
626.324	3.84
626.657	3.84
626.991	3.84
627.324	3.84
627.658	3.84
627.991	3.85
628.324	3.85
628.657	3.85
628.991	3.86
629.324	3.86
629.657	3.88
629.99	3.87
630.323	3.88
630.656	3.87
630.989	3.88
631.322	3.89
631.655	3.88
631.987	3.88
632.32	3.89
632.653	3.89
632.986	3.9
633.318	3.9
633.651	3.89
633.984	3.9
634.316	3.91
634.649	3.91
634.981	3.91
635.313	3.92
635.646	3.91
635.978	3.91
636.31	3.91
636.643	3.9
636.975	3.9
637.307	3.9
637.639	3.9
637.971	3.91
638.303	3.91
638.635	3.91
638.967	3.91
639.299	3.91
639.631	3.91
639.963	3.92
640.295	3.92
640.626	3.94
640.958	3.94
641.29	3.94
641.621	3.93
641.953	3.94
642.285	3.95
642.616	3.97
642.948	3.96
643.279	3.97
643.61	3.97
643.942	3.97
644.273	3.97
644.604	3.97
644.936	3.98
645.267	3.98
645.598	3.99
645.929	3.99
646.26	3.99
646.591	4
646.922	4
647.253	4
647.584	3.99
647.915	4
648.245	4.01
648.576	4.01
648.907	4
649.238	4
649.568	4
649.899	4
650.229	4.01
650.56	4.02
650.89	4.03
651.221	4.03
651.551	4.04
651.882	4.05
652.212	4.04
652.542	4.04
652.872	4.04
653.203	4.05
653.533	4.05
653.863	4.04
654.193	4.04
654.523	4.03
654.853	4.04
655.183	4.04
655.513	4.04
655.843	4.05
656.172	4.05
656.502	4.05
656.832	4.04
657.162	4.04
657.491	4.04
657.821	4.05
658.15	4.04
658.48	4.03
658.809	4.03
659.139	4.03
659.468	4.04
659.798	4.05
660.127	4.04
660.456	4.07
660.785	4.08
661.115	4.1
661.444	4.11
661.773	4.12
662.102	4.12
662.431	4.13
662.76	4.13
663.089	4.14
663.418	4.14
663.747	4.14
664.076	4.14
664.404	4.13
664.733	4.15
665.062	4.16
665.39	4.16
665.719	4.16
666.048	4.16
666.376	4.16
666.705	4.16
667.033	4.14
667.362	4.14
667.69	4.15
668.018	4.14
668.347	4.15
668.675	4.13
669.003	4.13
669.331	4.13
669.659	4.13
669.987	4.14
670.315	4.14
670.643	4.17
670.971	4.17
671.299	4.17
671.627	4.17
671.955	4.16
672.283	4.16
672.61	4.18
672.938	4.19
673.266	4.2
673.593	4.19
673.921	4.2
674.249	4.2
674.576	4.21
674.904	4.21
675.231	4.22
675.558	4.23
675.886	4.24
676.213	4.24
676.54	4.25
676.867	4.25
677.195	4.26
677.522	4.28
677.849	4.3
678.176	4.31
678.503	4.33
678.83	4.33
679.157	4.33
679.484	4.32
679.81	4.32
680.137	4.32
680.464	4.33
680.791	4.33
681.117	4.31
681.444	4.31
681.771	4.3
682.097	4.3
682.424	4.29
682.75	4.28
683.077	4.28
