Data from UWBM48344_Reflection_00010.txt Node
Date: Sun May 02 14:01:29 EDT 2021
User: vgr7
Spectrometer: USB2G7710
Scans to average: 10
Trigger mode: 4
Integration Time (sec): 1.000000E-1
Electric dark correction enabled: true
Boxcar width: 20
XAxis mode: Wavelengths
Number of Pixels in Spectrum: 2048
>>>>>Begin Spectral Data<<<<<
177.721	201.85
178.105	407.41
178.488	125.31
178.871	35.19
179.254	55.11
179.636	18.86
180.019	17.19
180.402	6.24
180.785	11.65
181.168	14.43
181.55	8.76
181.933	9.77
182.316	-0.48
182.698	4.5
183.081	0.69
183.463	-3.1
183.846	-4.56
184.228	4.63
184.611	4.66
184.993	9.56
185.376	13.1
185.758	16.23
186.14	13.51
186.522	12.46
186.904	12
187.287	13.19
187.669	13.09
188.051	13.6
188.433	13.57
188.815	12.2
189.197	12.03
189.579	11.21
189.961	10.86
190.342	11.25
190.724	12.71
191.106	13.19
191.488	14.03
191.869	11.15
192.251	10.24
192.633	11.19
193.014	11.5
193.396	9.13
193.777	11.03
194.159	11.99
194.54	11.04
194.922	8.26
195.303	8.96
195.684	7.87
196.065	7.08
196.447	7.27
196.828	7.6
197.209	6.96
197.59	4.85
197.971	6.14
198.352	5.94
198.733	7.27
199.114	8.5
199.495	10.15
199.876	8.46
200.257	9.53
200.638	8.15
201.018	8.52
201.399	9.3
201.78	9.02
202.16	7.09
202.541	6.87
202.922	5.77
203.302	4.55
203.683	5.62
204.063	5.98
204.444	4.68
204.824	3.66
205.204	3.73
205.585	5.09
205.965	5.91
206.345	4.62
206.725	5.72
207.106	4.65
207.486	6.33
207.866	6.39
208.246	5.1
208.626	4.16
209.006	4.73
209.386	4.23
209.766	3.37
210.145	3.74
210.525	5.59
210.905	7.34
211.285	6.71
211.664	7.26
212.044	6.72
212.424	5.34
212.803	5.04
213.183	6.17
213.562	7.83
213.942	7.11
214.321	5.13
214.701	3.97
215.08	3.84
215.459	3.5
215.838	0.89
216.218	0.42
216.597	-1.73
216.976	-2.1
217.355	-1.24
217.734	0.48
218.113	0.28
218.492	0.08
218.871	0.34
219.25	0.47
219.629	0.7
220.008	2.01
220.387	1.27
220.766	1.78
221.144	1.17
221.523	1.84
221.902	3.27
222.28	3.05
222.659	2.92
223.037	2.77
223.416	3.48
223.794	3.89
224.173	4.51
224.551	4.33
224.929	4.72
225.308	4.86
225.686	5.44
226.064	5.33
226.442	4.94
226.821	6.2
227.199	7.05
227.577	7.41
227.955	7.75
228.333	8.11
228.711	7.86
229.089	7.21
229.467	7.27
229.845	7.79
230.222	7.63
230.6	7.44
230.978	7.49
231.356	7.93
231.733	7.95
232.111	7.98
232.488	7.81
232.866	7.41
233.243	7.2
233.621	7.28
233.998	7.28
234.376	7.14
234.753	6.64
235.13	6.55
235.508	6.57
235.885	6.55
236.262	6.39
236.639	6.28
237.016	6.1
237.393	6.13
237.77	6.14
238.147	6.12
238.524	5.98
238.901	5.85
239.278	5.83
239.655	5.82
240.032	5.78
240.409	5.73
240.785	5.65
241.162	5.66
241.539	5.6
241.915	5.63
242.292	5.59
242.668	5.53
243.045	5.49
243.421	5.48
243.798	5.48
244.174	5.51
244.551	5.51
244.927	5.47
245.303	5.51
245.679	5.53
246.056	5.46
246.432	5.45
246.808	5.41
247.184	5.39
247.56	5.39
247.936	5.38
248.312	5.4
248.688	5.36
249.064	5.34
249.44	5.37
249.815	5.33
250.191	5.31
250.567	5.32
250.943	5.3
251.318	5.24
251.694	5.23
252.069	5.22
252.445	5.22
252.82	5.17
253.196	5.14
253.571	5.13
253.947	5.12
254.322	5.12
254.697	5.12
255.073	5.1
255.448	5.1
255.823	5.04
256.198	5.05
256.573	5.02
256.948	5.03
257.323	4.98
257.698	4.93
258.073	4.91
258.448	4.89
258.823	4.86
259.198	4.85
259.573	4.82
259.948	4.81
260.322	4.83
260.697	4.77
261.072	4.74
261.446	4.75
261.821	4.73
262.195	4.73
262.57	4.73
262.944	4.71
263.319	4.73
263.693	4.72
264.067	4.74
264.442	4.74
264.816	4.7
265.19	4.72
265.564	4.74
265.938	4.72
266.313	4.73
266.687	4.74
267.061	4.74
267.435	4.74
267.809	4.73
268.183	4.72
268.556	4.72
268.93	4.71
269.304	4.72
269.678	4.71
270.051	4.68
270.425	4.67
270.799	4.67
271.172	4.68
271.546	4.68
271.919	4.67
272.293	4.67
272.666	4.68
273.04	4.69
273.413	4.72
273.787	4.73
274.16	4.75
274.533	4.75
274.906	4.75
275.279	4.74
275.653	4.73
276.026	4.74
276.399	4.76
276.772	4.76
277.145	4.76
277.518	4.77
277.891	4.78
278.263	4.77
278.636	4.77
279.009	4.76
279.382	4.75
279.755	4.76
280.127	4.8
280.5	4.8
280.872	4.81
281.245	4.81
281.617	4.81
281.99	4.81
282.362	4.8
282.735	4.8
283.107	4.79
283.479	4.81
283.852	4.83
284.224	4.84
284.596	4.85
284.968	4.86
285.34	4.88
285.713	4.89
286.085	4.9
286.457	4.92
286.829	4.91
287.201	4.92
287.572	4.94
287.944	4.94
288.316	4.96
288.688	4.97
289.06	4.98
289.431	5
289.803	5.01
290.175	5.03
290.546	5.06
290.918	5.09
291.289	5.13
291.661	5.16
292.032	5.18
292.403	5.21
292.775	5.24
293.146	5.24
293.517	5.28
293.889	5.3
294.26	5.34
294.631	5.37
295.002	5.39
295.373	5.4
295.744	5.43
296.115	5.45
296.486	5.49
296.857	5.52
297.228	5.55
297.599	5.61
297.97	5.64
298.34	5.67
298.711	5.7
299.082	5.73
299.452	5.76
299.823	5.78
300.194	5.81
300.564	5.84
300.935	5.87
301.305	5.91
301.676	5.94
302.046	5.98
302.416	6.02
302.787	6.03
303.157	6.06
303.527	6.1
303.897	6.12
304.267	6.16
304.637	6.2
305.008	6.24
305.378	6.29
305.748	6.33
306.117	6.36
306.487	6.39
306.857	6.43
307.227	6.48
307.597	6.53
307.967	6.55
308.336	6.6
308.706	6.62
309.076	6.65
309.445	6.69
309.815	6.72
310.184	6.75
310.554	6.78
310.923	6.83
311.293	6.87
311.662	6.88
312.031	6.92
312.401	6.96
312.77	6.98
313.139	7.02
313.508	7.06
313.877	7.1
314.246	7.13
314.616	7.16
314.985	7.19
315.353	7.24
315.722	7.27
316.091	7.33
316.46	7.36
316.829	7.41
317.198	7.47
317.567	7.5
317.935	7.56
318.304	7.62
318.672	7.66
319.041	7.74
319.41	7.76
319.778	7.82
320.147	7.85
320.515	7.89
320.883	7.91
321.252	7.96
321.62	7.98
321.988	8.02
322.357	8.04
322.725	8.07
323.093	8.11
323.461	8.13
323.829	8.18
324.197	8.21
324.565	8.22
324.933	8.27
325.301	8.31
325.669	8.35
326.037	8.37
326.405	8.4
326.772	8.43
327.14	8.45
327.508	8.48
327.875	8.5
328.243	8.51
328.61	8.52
328.978	8.53
329.346	8.55
329.713	8.58
330.08	8.6
330.448	8.61
330.815	8.63
331.182	8.63
331.55	8.64
331.917	8.66
332.284	8.65
332.651	8.68
333.018	8.69
333.385	8.71
333.752	8.73
334.119	8.74
334.486	8.77
334.853	8.79
335.22	8.81
335.587	8.84
335.954	8.87
336.32	8.88
336.687	8.89
337.054	8.91
337.42	8.94
337.787	8.96
338.153	8.98
338.52	9
338.886	9.01
339.253	9.04
339.619	9.08
339.986	9.09
340.352	9.11
340.718	9.12
341.084	9.14
341.451	9.15
341.817	9.17
342.183	9.17
342.549	9.18
342.915	9.19
343.281	9.21
343.647	9.24
344.013	9.25
344.379	9.26
344.745	9.28
345.11	9.29
345.476	9.31
345.842	9.33
346.208	9.34
346.573	9.36
346.939	9.37
347.304	9.39
347.67	9.39
348.035	9.41
348.401	9.41
348.766	9.42
349.132	9.43
349.497	9.44
349.862	9.45
350.228	9.45
350.593	9.44
350.958	9.44
351.323	9.45
351.688	9.46
352.053	9.46
352.418	9.46
352.783	9.45
353.148	9.45
353.513	9.45
353.878	9.44
354.243	9.42
354.608	9.41
354.972	9.4
355.337	9.39
355.702	9.39
356.066	9.38
356.431	9.37
356.795	9.36
357.16	9.34
357.524	9.33
357.889	9.32
358.253	9.3
358.618	9.29
358.982	9.28
359.346	9.27
359.71	9.25
360.075	9.23
360.439	9.21
360.803	9.18
361.167	9.17
361.531	9.14
361.895	9.11
362.259	9.09
362.623	9.07
362.987	9.04
363.351	9.02
363.714	8.99
364.078	8.96
364.442	8.93
364.806	8.91
365.169	8.87
365.533	8.85
365.896	8.82
366.26	8.79
366.623	8.76
366.987	8.72
367.35	8.69
367.714	8.66
368.077	8.62
368.44	8.58
368.803	8.54
369.167	8.5
369.53	8.46
369.893	8.4
370.256	8.35
370.619	8.3
370.982	8.26
371.345	8.21
371.708	8.17
372.071	8.13
372.434	8.08
372.797	8.03
373.159	7.99
373.522	7.95
373.885	7.9
374.247	7.84
374.61	7.8
374.973	7.75
375.335	7.71
375.698	7.66
376.06	7.61
376.423	7.57
376.785	7.53
377.147	7.48
377.51	7.44
377.872	7.4
378.234	7.35
378.596	7.31
378.958	7.26
379.321	7.22
379.683	7.18
380.045	7.13
380.407	7.09
380.769	7.05
381.13	7.02
381.492	6.97
381.854	6.93
382.216	6.89
382.578	6.84
382.939	6.8
383.301	6.77
383.663	6.73
384.024	6.69
384.386	6.65
384.747	6.62
385.109	6.58
385.47	6.54
385.832	6.5
386.193	6.46
386.554	6.42
386.916	6.39
387.277	6.35
387.638	6.32
387.999	6.29
388.36	6.26
388.721	6.23
389.082	6.2
389.443	6.17
389.804	6.15
390.165	6.12
390.526	6.1
390.887	6.08
391.248	6.05
391.609	6.03
391.969	6
392.33	5.97
392.691	5.94
393.051	5.91
393.412	5.89
393.772	5.86
394.133	5.83
394.493	5.8
394.854	5.77
395.214	5.75
395.574	5.72
395.935	5.69
396.295	5.66
396.655	5.64
397.015	5.61
397.376	5.59
397.736	5.56
398.096	5.53
398.456	5.51
398.816	5.49
399.176	5.46
399.535	5.43
399.895	5.41
400.255	5.38
400.615	5.36
400.975	5.34
401.334	5.31
401.694	5.29
402.054	5.28
402.413	5.25
402.773	5.23
403.132	5.21
403.492	5.19
403.851	5.17
404.211	5.15
404.57	5.13
404.929	5.11
405.288	5.1
405.648	5.09
406.007	5.07
406.366	5.06
406.725	5.04
407.084	5.03
407.443	5.02
407.802	5.01
408.161	5
408.52	4.99
408.879	4.98
409.238	4.97
409.596	4.96
409.955	4.95
410.314	4.95
410.673	4.93
411.031	4.93
411.39	4.92
411.748	4.91
412.107	4.91
412.465	4.91
412.824	4.93
413.182	4.94
413.54	4.96
413.899	4.98
414.257	5.01
414.615	5.05
414.974	5.07
415.332	5.11
415.69	5.14
416.048	5.17
416.406	5.21
416.764	5.23
417.122	5.26
417.48	5.29
417.838	5.31
418.195	5.33
418.553	5.35
418.911	5.36
419.269	5.36
419.626	5.35
419.984	5.33
420.342	5.31
420.699	5.28
421.057	5.25
421.414	5.23
421.772	5.2
422.129	5.19
422.486	5.17
422.844	5.17
423.201	5.16
423.558	5.15
423.915	5.14
424.273	5.14
424.63	5.13
424.987	5.12
425.344	5.12
425.701	5.11
426.058	5.1
426.415	5.1
426.772	5.09
427.128	5.08
427.485	5.06
427.842	5.03
428.199	5.01
428.555	4.98
428.912	4.95
429.269	4.91
429.625	4.88
429.982	4.85
430.338	4.81
430.695	4.77
431.051	4.73
431.407	4.71
431.764	4.68
432.12	4.65
432.476	4.64
432.832	4.63
433.189	4.63
433.545	4.63
433.901	4.64
434.257	4.66
434.613	4.69
434.969	4.72
435.325	4.75
435.681	4.79
436.036	4.82
436.392	4.84
436.748	4.86
437.104	4.87
437.459	4.89
437.815	4.91
438.171	4.93
438.526	4.96
438.882	4.99
439.237	5.03
439.593	5.08
439.948	5.11
440.304	5.15
440.659	5.18
441.014	5.2
441.369	5.23
441.725	5.25
442.08	5.26
442.435	5.28
442.79	5.29
443.145	5.29
443.5	5.29
443.855	5.29
444.21	5.29
444.565	5.28
444.92	5.27
445.275	5.26
445.629	5.25
445.984	5.23
446.339	5.22
446.693	5.21
447.048	5.18
447.403	5.16
447.757	5.13
448.112	5.1
448.466	5.07
448.82	5.04
449.175	5.01
449.529	4.99
449.883	4.96
450.238	4.93
450.592	4.92
450.946	4.9
451.3	4.9
451.654	4.91
452.008	4.9
452.362	4.91
452.716	4.9
453.07	4.9
453.424	4.89
453.778	4.88
454.132	4.86
454.486	4.85
454.839	4.82
455.193	4.8
455.547	4.78
455.9	4.75
456.254	4.73
456.607	4.7
456.961	4.67
457.314	4.64
457.668	4.63
458.021	4.63
458.375	4.62
458.728	4.62
459.081	4.62
459.434	4.63
459.787	4.64
460.141	4.66
460.494	4.67
460.847	4.68
461.2	4.68
461.553	4.69
461.906	4.7
462.259	4.71
462.611	4.72
462.964	4.73
463.317	4.74
463.67	4.75
464.022	4.76
464.375	4.77
464.728	4.78
465.08	4.79
465.433	4.79
465.785	4.8
466.138	4.78
466.49	4.77
466.843	4.75
467.195	4.73
467.547	4.72
467.899	4.7
468.252	4.67
468.604	4.65
468.956	4.64
469.308	4.62
469.66	4.63
470.012	4.63
470.364	4.64
470.716	4.65
471.068	4.67
471.42	4.7
471.772	4.73
472.123	4.75
472.475	4.76
472.827	4.78
473.178	4.79
473.53	4.81
473.882	4.83
474.233	4.85
474.585	4.9
474.936	4.97
475.288	5.07
475.639	5.2
475.99	5.35
476.342	5.52
476.693	5.7
477.044	5.88
477.395	6.07
477.746	6.27
478.097	6.47
478.448	6.67
478.8	6.86
479.15	7.04
479.501	7.2
479.852	7.35
480.203	7.5
480.554	7.63
480.905	7.76
481.255	7.88
481.606	8.01
481.957	8.12
482.307	8.22
482.658	8.32
483.009	8.41
483.359	8.5
483.709	8.6
484.06	8.68
484.41	8.76
484.761	8.84
485.111	8.92
485.461	8.99
485.811	9.06
486.162	9.13
486.512	9.18
486.862	9.22
487.212	9.25
487.562	9.27
487.912	9.28
488.262	9.29
488.612	9.28
488.961	9.25
489.311	9.21
489.661	9.13
490.011	9.03
490.36	8.92
490.71	8.79
491.06	8.64
491.409	8.49
491.759	8.33
492.108	8.15
492.458	7.98
492.807	7.8
493.157	7.62
493.506	7.46
493.855	7.3
494.204	7.15
494.554	7.01
494.903	6.88
495.252	6.76
495.601	6.65
495.95	6.53
496.299	6.43
496.648	6.34
496.997	6.26
497.346	6.18
497.695	6.1
498.043	6.03
498.392	5.97
498.741	5.91
499.09	5.86
499.438	5.81
499.787	5.76
500.135	5.73
500.484	5.71
500.832	5.7
501.181	5.7
501.529	5.72
501.878	5.76
502.226	5.81
502.574	5.86
502.923	5.92
503.271	5.98
503.619	6.05
503.967	6.12
504.315	6.18
504.663	6.25
505.011	6.32
505.359	6.39
505.707	6.47
506.055	6.55
506.403	6.64
506.751	6.73
507.098	6.82
507.446	6.91
507.794	7.01
508.141	7.12
508.489	7.24
508.837	7.36
509.184	7.48
509.531	7.6
509.879	7.73
510.226	7.88
510.574	8.03
510.921	8.19
511.268	8.35
511.616	8.52
511.963	8.7
512.31	8.88
512.657	9.05
513.004	9.23
513.351	9.4
513.698	9.56
514.045	9.71
514.392	9.85
514.739	9.98
515.086	10.12
515.432	10.25
515.779	10.38
516.126	10.51
516.473	10.65
516.819	10.81
517.166	10.99
517.512	11.18
517.859	11.38
518.205	11.6
518.552	11.85
518.898	12.11
519.245	12.41
519.591	12.77
519.937	13.2
520.283	13.69
520.629	14.23
520.976	14.8
521.322	15.39
521.668	15.99
522.014	16.61
522.36	17.22
522.706	17.82
523.052	18.41
523.398	18.97
523.743	19.48
524.089	19.95
524.435	20.39
524.781	20.83
525.126	21.25
525.472	21.66
525.817	22.06
526.163	22.46
526.509	22.85
526.854	23.24
527.199	23.62
527.545	24
527.89	24.4
528.235	24.8
528.581	25.17
528.926	25.53
529.271	25.87
529.616	26.19
529.961	26.51
530.306	26.81
530.651	27.09
530.996	27.35
531.341	27.58
531.686	27.8
532.031	28.01
532.376	28.23
532.721	28.48
533.065	28.75
533.41	29.04
533.755	29.29
534.099	29.52
534.444	29.71
534.788	29.88
535.133	30.03
535.477	30.16
535.822	30.27
536.166	30.33
536.51	30.36
536.855	30.33
537.199	30.28
537.543	30.22
537.887	30.19
538.231	30.2
538.576	30.2
538.92	30.2
539.264	30.18
539.608	30.15
539.951	30.11
540.295	30.06
540.639	29.99
540.983	29.9
541.327	29.8
541.671	29.69
542.014	29.6
542.358	29.53
542.701	29.52
543.045	29.57
543.389	29.64
543.732	29.73
544.075	29.84
544.419	29.95
544.762	30.09
545.105	30.23
545.449	30.39
545.792	30.55
546.135	30.7
546.478	30.82
546.821	30.91
547.165	30.94
547.508	30.91
547.851	30.85
548.194	30.75
548.536	30.61
548.879	30.45
549.222	30.26
549.565	30.07
549.908	29.88
550.25	29.72
550.593	29.6
550.936	29.54
551.278	29.53
551.621	29.56
551.963	29.6
552.306	29.66
552.648	29.76
552.991	29.87
553.333	30
553.675	30.17
554.017	30.35
554.36	30.56
554.702	30.81
555.044	31.08
555.386	31.39
555.728	31.74
556.07	32.04
556.412	32.34
556.754	32.58
557.096	32.78
557.438	32.97
557.78	33.16
558.121	33.37
558.463	33.57
558.805	33.76
559.147	33.95
559.488	34.15
559.83	34.35
560.171	34.55
560.513	34.75
560.854	34.93
561.196	35.11
561.537	35.29
561.878	35.47
562.22	35.64
562.561	35.8
562.902	35.97
563.243	36.14
563.584	36.31
563.925	36.47
564.266	36.64
564.607	36.8
564.948	36.96
565.289	37.12
565.63	37.27
565.971	37.43
566.312	37.59
566.653	37.75
566.993	37.89
567.334	38.04
567.675	38.17
568.015	38.31
568.356	38.44
568.696	38.56
569.037	38.69
569.377	38.8
569.718	38.92
570.058	39.03
570.398	39.14
570.739	39.24
571.079	39.34
571.419	39.45
571.759	39.55
572.099	39.65
572.439	39.74
572.779	39.83
573.119	39.92
573.459	40.01
573.799	40.09
574.139	40.17
574.479	40.25
574.819	40.35
575.158	40.43
575.498	40.52
575.838	40.59
576.177	40.67
576.517	40.75
576.856	40.83
577.196	40.9
577.535	40.97
577.875	41.04
578.214	41.12
578.553	41.2
578.893	41.27
579.232	41.34
579.571	41.42
579.91	41.49
580.25	41.56
580.589	41.63
580.928	41.7
581.267	41.78
581.606	41.86
581.945	41.94
582.283	42.01
582.622	42.09
582.961	42.16
583.3	42.25
583.639	42.33
583.977	42.4
584.316	42.49
584.654	42.57
584.993	42.65
585.332	42.72
585.67	42.8
586.008	42.87
586.347	42.95
586.685	43.02
587.024	43.1
587.362	43.19
587.7	43.25
588.038	43.33
588.376	43.4
588.715	43.47
589.053	43.56
589.391	43.64
589.729	43.72
590.067	43.81
590.404	43.89
590.742	43.95
591.08	44.03
591.418	44.1
591.756	44.18
592.093	44.24
592.431	44.29
592.769	44.36
593.106	44.42
593.444	44.46
593.781	44.51
594.119	44.57
594.456	44.62
594.793	44.68
595.131	44.73
595.468	44.78
595.805	44.83
596.143	44.9
596.48	44.96
596.817	45.03
597.154	45.1
597.491	45.16
597.828	45.23
598.165	45.28
598.502	45.34
598.839	45.4
599.176	45.45
599.512	45.49
599.849	45.55
600.186	45.59
600.523	45.63
600.859	45.68
601.196	45.72
601.532	45.78
601.869	45.82
602.205	45.86
602.542	45.9
602.878	45.94
603.215	45.97
603.551	46
603.887	46.04
604.223	46.06
604.56	46.1
604.896	46.13
605.232	46.16
605.568	46.19
605.904	46.22
606.24	46.25
606.576	46.27
606.912	46.3
607.248	46.33
607.583	46.36
607.919	46.39
608.255	46.41
608.591	46.43
608.926	46.45
609.262	46.47
609.597	46.49
609.933	46.51
610.268	46.53
610.604	46.53
610.939	46.55
611.275	46.56
611.61	46.58
611.945	46.59
612.281	46.6
612.616	46.6
612.951	46.61
613.286	46.64
613.621	46.65
613.956	46.66
614.291	46.68
614.626	46.7
614.961	46.71
615.296	46.72
615.631	46.73
615.966	46.76
616.3	46.79
616.635	46.81
616.97	46.83
617.304	46.84
617.639	46.86
617.973	46.89
618.308	46.91
618.642	46.95
618.977	46.96
619.311	46.98
619.646	47.01
619.98	47.05
620.314	47.08
620.648	47.12
620.983	47.15
621.317	47.19
621.651	47.22
621.985	47.26
622.319	47.29
622.653	47.31
622.987	47.34
623.321	47.35
623.655	47.37
623.988	47.39
624.322	47.41
624.656	47.43
624.99	47.46
625.323	47.49
625.657	47.5
625.99	47.52
626.324	47.55
626.657	47.57
626.991	47.6
627.324	47.62
627.658	47.65
627.991	47.67
628.324	47.68
628.657	47.71
628.991	47.74
629.324	47.76
629.657	47.78
629.99	47.79
630.323	47.82
630.656	47.83
630.989	47.85
631.322	47.86
631.655	47.88
631.987	47.9
632.32	47.91
632.653	47.93
632.986	47.94
633.318	47.95
633.651	47.95
633.984	47.96
634.316	47.96
634.649	47.97
634.981	47.98
635.313	47.99
635.646	47.99
635.978	48
636.31	48
636.643	48.01
636.975	48.03
637.307	48.04
637.639	48.06
637.971	48.09
638.303	48.1
638.635	48.11
638.967	48.13
639.299	48.15
639.631	48.16
639.963	48.18
640.295	48.2
640.626	48.21
640.958	48.23
641.29	48.26
641.621	48.26
641.953	48.29
642.285	48.3
642.616	48.31
642.948	48.31
643.279	48.32
643.61	48.35
643.942	48.36
644.273	48.38
644.604	48.41
644.936	48.42
645.267	48.43
645.598	48.45
645.929	48.47
646.26	48.5
646.591	48.52
646.922	48.53
647.253	48.55
647.584	48.57
647.915	48.6
648.245	48.61
648.576	48.62
648.907	48.64
649.238	48.65
649.568	48.67
649.899	48.68
650.229	48.72
650.56	48.73
650.89	48.76
651.221	48.77
651.551	48.77
651.882	48.78
652.212	48.79
652.542	48.79
652.872	48.82
653.203	48.83
653.533	48.85
653.863	48.87
654.193	48.89
654.523	48.9
654.853	48.91
655.183	48.93
655.513	48.94
655.843	48.95
656.172	48.95
656.502	48.98
656.832	48.99
657.162	49.01
657.491	49.02
657.821	49.03
658.15	49.05
658.48	49.07
658.809	49.09
659.139	49.1
659.468	49.11
659.798	49.11
660.127	49.12
660.456	49.14
660.785	49.16
661.115	49.17
661.444	49.2
661.773	49.22
662.102	49.22
662.431	49.24
662.76	49.26
663.089	49.28
663.418	49.29
663.747	49.3
664.076	49.32
664.404	49.33
664.733	49.36
665.062	49.39
665.39	49.43
665.719	49.46
666.048	49.5
666.376	49.51
666.705	49.55
667.033	49.56
667.362	49.57
667.69	49.58
668.018	49.62
668.347	49.64
668.675	49.66
669.003	49.69
669.331	49.7
669.659	49.72
669.987	49.73
670.315	49.75
670.643	49.78
670.971	49.8
671.299	49.82
671.627	49.83
