Data from UWBM104549_Reflection_00004.txt Node
Date: Sun May 02 12:24:32 EDT 2021
User: vgr7
Spectrometer: USB2G7710
Scans to average: 10
Trigger mode: 4
Integration Time (sec): 1.000000E-1
Electric dark correction enabled: true
Boxcar width: 10
XAxis mode: Wavelengths
Number of Pixels in Spectrum: 2048
>>>>>Begin Spectral Data<<<<<
177.721	592
178.105	177.14
178.488	198.23
178.871	516.33
179.254	-74.19
179.636	-119.1
180.019	1060
180.402	222.22
180.785	63.08
181.168	21.23
181.55	21.34
181.933	-7.61
182.316	65.26
182.698	113.95
183.081	127.91
183.463	104.84
183.846	39.6
184.228	10
184.611	18.32
184.993	34.29
185.376	23.86
185.758	14.57
186.14	20.57
186.522	25.7
186.904	21.16
187.287	26.87
187.669	26.32
188.051	32.69
188.433	37.43
188.815	32.91
189.197	35.18
189.579	32.69
189.961	30.14
190.342	22.28
190.724	21.65
191.106	20.49
191.488	21.47
191.869	17.96
192.251	21.21
192.633	18.93
193.014	16.05
193.396	15.86
193.777	16.86
194.159	16.91
194.54	14.65
194.922	12.63
195.303	13.05
195.684	12.52
196.065	12.91
196.447	6.41
196.828	6.03
197.209	3.4
197.59	2.87
197.971	3.12
198.352	7.48
198.733	17.14
199.114	10.32
199.495	8.62
199.876	10.67
200.257	10.92
200.638	9.8
201.018	13.28
201.399	10.14
201.78	7.36
202.16	4.3
202.541	4.89
202.922	4.78
203.302	1.83
203.683	-0.27
204.063	-3.01
204.444	-3.11
204.824	3.51
205.204	5.57
205.585	4.69
205.965	5.46
206.345	5.12
206.725	-2.98
207.106	0.66
207.486	1.2
207.866	3.84
208.246	6.32
208.626	8.41
209.006	9.36
209.386	10.71
209.766	10.8
210.145	11.37
210.525	5.34
210.905	6.36
211.285	7.66
211.664	6.12
212.044	11.12
212.424	15.82
212.803	10.36
213.183	13.8
213.562	15.77
213.942	15.83
214.321	9.32
214.701	6.81
215.08	6.54
215.459	6.91
215.838	1.65
216.218	0.15
216.597	-0.72
216.976	-4.39
217.355	-0.88
217.734	0.13
218.113	-0.83
218.492	3.67
218.871	6.03
219.25	5.99
219.629	6.39
220.008	6.36
220.387	5.62
220.766	2.8
221.144	-0.42
221.523	3.1
221.902	0.76
222.28	4.53
222.659	5.21
223.037	9.31
223.416	11.71
223.794	14.97
224.173	15.42
224.551	18.58
224.929	16.48
225.308	14.94
225.686	13.01
226.064	13.17
226.442	12.21
226.821	10.26
227.199	9.26
227.577	8.79
227.955	8.83
228.333	8.36
228.711	8.3
229.089	9.99
229.467	9.82
229.845	11.35
230.222	11.8
230.6	12.47
230.978	11.74
231.356	10.57
231.733	9.49
232.111	8.83
232.488	6.93
232.866	6.8
233.243	7.06
233.621	8.33
233.998	7.42
234.376	7.73
234.753	8.56
235.13	8.35
235.508	9.37
235.885	9.03
236.262	8.82
236.639	9.54
237.016	9.02
237.393	8.84
237.77	8.63
238.147	8.21
238.524	8.41
238.901	8.17
239.278	8.08
239.655	8.27
240.032	8.11
240.409	8.38
240.785	8.34
241.162	8.22
241.539	7.88
241.915	8.02
242.292	8.01
242.668	7.79
243.045	7.84
243.421	7.52
243.798	7.37
244.174	7.33
244.551	7.14
244.927	6.99
245.303	6.88
245.679	6.82
246.056	6.8
246.432	6.75
246.808	6.69
247.184	6.68
247.56	6.64
247.936	6.67
248.312	6.62
248.688	6.59
249.064	6.56
249.44	6.59
249.815	6.55
250.191	6.46
250.567	6.47
250.943	6.42
251.318	6.48
251.694	6.49
252.069	6.42
252.445	6.46
252.82	6.46
253.196	6.47
253.571	6.44
253.947	6.54
254.322	6.41
254.697	6.47
255.073	6.44
255.448	6.33
255.823	6.26
256.198	6.1
256.573	6.02
256.948	6.02
257.323	6.07
257.698	6.04
258.073	5.98
258.448	5.94
258.823	5.92
259.198	5.93
259.573	5.9
259.948	5.93
260.322	5.88
260.697	5.84
261.072	5.84
261.446	5.78
261.821	5.73
262.195	5.75
262.57	5.7
262.944	5.7
263.319	5.69
263.693	5.74
264.067	5.75
264.442	5.75
264.816	5.7
265.19	5.6
265.564	5.58
265.938	5.59
266.313	5.56
266.687	5.46
267.061	5.42
267.435	5.42
267.809	5.43
268.183	5.47
268.556	5.5
268.93	5.45
269.304	5.45
269.678	5.4
270.051	5.33
270.425	5.36
270.799	5.37
271.172	5.38
271.546	5.32
271.919	5.36
272.293	5.37
272.666	5.38
273.04	5.38
273.413	5.32
273.787	5.3
274.16	5.31
274.533	5.38
274.906	5.32
275.279	5.33
275.653	5.29
276.026	5.24
276.399	5.19
276.772	5.24
277.145	5.26
277.518	5.3
277.891	5.34
278.263	5.33
278.636	5.35
279.009	5.38
279.382	5.35
279.755	5.32
280.127	5.35
280.5	5.34
280.872	5.31
281.245	5.39
281.617	5.42
281.99	5.48
282.362	5.47
282.735	5.49
283.107	5.44
283.479	5.45
283.852	5.44
284.224	5.45
284.596	5.41
284.968	5.43
285.34	5.39
285.713	5.43
286.085	5.38
286.457	5.37
286.829	5.33
287.201	5.36
287.572	5.35
287.944	5.36
288.316	5.4
288.688	5.44
289.06	5.41
289.431	5.41
289.803	5.37
290.175	5.35
290.546	5.35
290.918	5.41
291.289	5.44
291.661	5.47
292.032	5.52
292.403	5.56
292.775	5.57
293.146	5.63
293.517	5.62
293.889	5.7
294.26	5.66
294.631	5.71
295.002	5.73
295.373	5.81
295.744	5.79
296.115	5.77
296.486	5.77
296.857	5.79
297.228	5.81
297.599	5.84
297.97	5.86
298.34	5.9
298.711	5.88
299.082	5.85
299.452	5.84
299.823	5.86
300.194	5.86
300.564	5.83
300.935	5.83
301.305	5.84
301.676	5.78
302.046	5.81
302.416	5.81
302.787	5.83
303.157	5.8
303.527	5.85
303.897	5.85
304.267	5.86
304.637	5.85
305.008	5.88
305.378	5.86
305.748	5.85
306.117	5.86
306.487	5.88
306.857	5.9
307.227	5.91
307.597	5.87
307.967	5.9
308.336	5.94
308.706	5.93
309.076	5.93
309.445	5.97
309.815	5.98
310.184	5.96
310.554	5.97
310.923	5.94
311.293	5.93
311.662	5.95
312.031	5.94
312.401	5.95
312.77	5.92
313.139	5.95
313.508	5.96
313.877	5.98
314.246	5.96
314.616	5.97
314.985	5.97
315.353	6
315.722	6.01
316.091	6
316.46	5.98
316.829	5.98
317.198	6.01
317.567	6
317.935	6.01
318.304	6.01
318.672	6.03
319.041	6.05
319.41	6.11
319.778	6.15
320.147	6.2
320.515	6.19
320.883	6.19
321.252	6.18
321.62	6.13
321.988	6.19
322.357	6.19
322.725	6.19
323.093	6.18
323.461	6.15
323.829	6.16
324.197	6.18
324.565	6.19
324.933	6.13
325.301	6.12
325.669	6.13
326.037	6.1
326.405	6.11
326.772	6.09
327.14	6.02
327.508	6
327.875	6.01
328.243	6.01
328.61	6
328.978	6.02
329.346	6.02
329.713	5.97
330.08	5.98
330.448	5.97
330.815	5.98
331.182	5.96
331.55	5.93
331.917	5.95
332.284	5.93
332.651	5.95
333.018	5.96
333.385	5.98
333.752	5.97
334.119	5.98
334.486	5.98
334.853	6.01
335.22	6.02
335.587	5.99
335.954	6.02
336.32	6.02
336.687	6.01
337.054	6.01
337.42	6.02
337.787	6.02
338.153	6.03
338.52	6.04
338.886	6.09
339.253	6.12
339.619	6.12
339.986	6.13
340.352	6.14
340.718	6.17
341.084	6.17
341.451	6.21
341.817	6.17
342.183	6.21
342.549	6.23
342.915	6.21
343.281	6.22
343.647	6.22
344.013	6.22
344.379	6.24
344.745	6.25
345.11	6.27
345.476	6.29
345.842	6.3
346.208	6.29
346.573	6.27
346.939	6.28
347.304	6.28
347.67	6.28
348.035	6.29
348.401	6.28
348.766	6.28
349.132	6.27
349.497	6.3
349.862	6.27
350.228	6.29
350.593	6.31
350.958	6.31
351.323	6.33
351.688	6.38
352.053	6.36
352.418	6.38
352.783	6.37
353.148	6.36
353.513	6.36
353.878	6.4
354.243	6.42
354.608	6.4
354.972	6.42
355.337	6.43
355.702	6.4
356.066	6.4
356.431	6.4
356.795	6.41
357.16	6.39
357.524	6.39
357.889	6.39
358.253	6.41
358.618	6.42
358.982	6.43
359.346	6.4
359.71	6.4
360.075	6.39
360.439	6.41
360.803	6.42
361.167	6.41
361.531	6.4
361.895	6.4
362.259	6.4
362.623	6.42
362.987	6.43
363.351	6.46
363.714	6.48
364.078	6.49
364.442	6.5
364.806	6.5
365.169	6.53
365.533	6.51
365.896	6.51
366.26	6.5
366.623	6.51
366.987	6.52
367.35	6.54
367.714	6.55
368.077	6.55
368.44	6.55
368.803	6.55
369.167	6.58
369.53	6.58
369.893	6.6
370.256	6.59
370.619	6.59
370.982	6.6
371.345	6.59
371.708	6.6
372.071	6.6
372.434	6.63
372.797	6.61
373.159	6.64
373.522	6.66
373.885	6.67
374.247	6.67
374.61	6.67
374.973	6.68
375.335	6.69
375.698	6.71
376.06	6.72
376.423	6.74
376.785	6.73
377.147	6.74
377.51	6.75
377.872	6.74
378.234	6.74
378.596	6.74
378.958	6.75
379.321	6.76
379.683	6.78
380.045	6.78
380.407	6.79
380.769	6.79
381.13	6.78
381.492	6.78
381.854	6.79
382.216	6.82
382.578	6.82
382.939	6.83
383.301	6.82
383.663	6.83
384.024	6.84
384.386	6.85
384.747	6.86
385.109	6.86
385.47	6.87
385.832	6.88
386.193	6.89
386.554	6.89
386.916	6.9
387.277	6.89
387.638	6.9
387.999	6.92
388.36	6.92
388.721	6.94
389.082	6.95
389.443	6.95
389.804	6.94
390.165	6.95
390.526	6.94
390.887	6.94
391.248	6.94
391.609	6.95
391.969	6.95
392.33	6.95
392.691	6.95
393.051	6.96
393.412	6.95
393.772	6.95
394.133	6.96
394.493	6.95
394.854	6.97
395.214	6.96
395.574	6.96
395.935	6.96
396.295	6.94
396.655	6.94
397.015	6.93
397.376	6.93
397.736	6.94
398.096	6.94
398.456	6.94
398.816	6.94
399.176	6.93
399.535	6.94
399.895	6.95
400.255	6.96
400.615	6.96
400.975	6.97
401.334	6.97
401.694	6.99
402.054	6.99
402.413	6.98
402.773	6.99
403.132	6.99
403.492	6.99
403.851	7
404.211	7.01
404.57	7.03
404.929	7.02
405.288	7.02
405.648	7.03
406.007	7.04
406.366	7.05
406.725	7.04
407.084	7.03
407.443	7.03
407.802	7.02
408.161	7.02
408.52	7.03
408.879	7.02
409.238	7.01
409.596	7
409.955	7
410.314	6.99
410.673	6.99
411.031	6.99
411.39	7
411.748	7
412.107	7
412.465	7.01
412.824	7.01
413.182	7
413.54	7
413.899	7
414.257	7.01
414.615	7.02
414.974	7.02
415.332	7.03
415.69	7.04
416.048	7.04
416.406	7.07
416.764	7.08
417.122	7.1
417.48	7.1
417.838	7.11
418.195	7.13
418.553	7.14
418.911	7.15
419.269	7.16
419.626	7.17
419.984	7.19
420.342	7.19
420.699	7.2
421.057	7.22
421.414	7.22
421.772	7.22
422.129	7.23
422.486	7.23
422.844	7.23
423.201	7.23
423.558	7.23
423.915	7.23
424.273	7.23
424.63	7.22
424.987	7.21
425.344	7.21
425.701	7.2
426.058	7.2
426.415	7.19
426.772	7.17
427.128	7.16
427.485	7.15
427.842	7.14
428.199	7.14
428.555	7.12
428.912	7.12
429.269	7.11
429.625	7.11
429.982	7.1
430.338	7.11
430.695	7.12
431.051	7.12
431.407	7.12
431.764	7.12
432.12	7.12
432.476	7.12
432.832	7.13
433.189	7.14
433.545	7.15
433.901	7.15
434.257	7.16
434.613	7.16
434.969	7.17
435.325	7.19
435.681	7.19
436.036	7.21
436.392	7.22
436.748	7.22
437.104	7.24
437.459	7.24
437.815	7.25
438.171	7.26
438.526	7.27
438.882	7.27
439.237	7.28
439.593	7.29
439.948	7.3
440.304	7.31
440.659	7.32
441.014	7.33
441.369	7.33
441.725	7.34
442.08	7.35
442.435	7.36
442.79	7.36
443.145	7.37
443.5	7.36
443.855	7.37
444.21	7.37
444.565	7.38
444.92	7.38
445.275	7.38
445.629	7.38
445.984	7.39
446.339	7.39
446.693	7.38
447.048	7.38
447.403	7.38
447.757	7.37
448.112	7.36
448.466	7.36
448.82	7.35
449.175	7.35
449.529	7.33
449.883	7.32
450.238	7.31
450.592	7.3
450.946	7.3
451.3	7.28
451.654	7.27
452.008	7.27
452.362	7.25
452.716	7.24
453.07	7.23
453.424	7.22
453.778	7.21
454.132	7.21
454.486	7.21
454.839	7.21
455.193	7.21
455.547	7.21
455.9	7.22
456.254	7.23
456.607	7.23
456.961	7.25
457.314	7.26
457.668	7.27
458.021	7.27
458.375	7.29
458.728	7.3
459.081	7.3
459.434	7.3
459.787	7.3
460.141	7.31
460.494	7.31
460.847	7.32
461.2	7.32
461.553	7.33
461.906	7.33
462.259	7.33
462.611	7.34
462.964	7.34
463.317	7.34
463.67	7.34
464.022	7.34
464.375	7.34
464.728	7.34
465.08	7.34
465.433	7.34
465.785	7.34
466.138	7.34
466.49	7.34
466.843	7.35
467.195	7.35
467.547	7.36
467.899	7.37
468.252	7.37
468.604	7.38
468.956	7.39
469.308	7.4
469.66	7.4
470.012	7.4
470.364	7.41
470.716	7.41
471.068	7.42
471.42	7.42
471.772	7.43
472.123	7.44
472.475	7.45
472.827	7.46
473.178	7.46
473.53	7.47
473.882	7.48
474.233	7.49
474.585	7.5
474.936	7.51
475.288	7.51
475.639	7.52
475.99	7.53
476.342	7.53
476.693	7.54
477.044	7.54
477.395	7.55
477.746	7.55
478.097	7.57
478.448	7.62
478.8	7.75
479.15	7.95
479.501	8.2
479.852	8.47
480.203	8.77
480.554	9.08
480.905	9.38
481.255	9.69
481.606	9.99
481.957	10.29
482.307	10.57
482.658	10.82
483.009	11.05
483.359	11.23
483.709	11.4
484.06	11.55
484.41	11.69
484.761	11.82
485.111	11.96
485.461	12.09
485.811	12.21
486.162	12.26
486.512	12.25
486.862	12.18
487.212	12.08
487.562	11.93
487.912	11.77
488.262	11.58
488.612	11.37
488.961	11.16
489.311	10.91
489.661	10.66
490.011	10.41
490.36	10.15
490.71	9.89
491.06	9.62
491.409	9.36
491.759	9.15
492.108	8.98
492.458	8.82
492.807	8.68
493.157	8.54
493.506	8.41
493.855	8.29
494.204	8.16
494.554	8.05
494.903	7.95
495.252	7.85
495.601	7.76
495.95	7.68
496.299	7.6
496.648	7.54
496.997	7.5
497.346	7.48
497.695	7.5
498.043	7.56
498.392	7.64
498.741	7.74
499.09	7.81
499.438	7.83
499.787	7.85
500.135	7.86
500.484	7.87
500.832	7.88
501.181	7.89
501.529	7.9
501.878	7.9
502.226	7.9
502.574	7.92
502.923	7.92
503.271	7.93
503.619	7.94
503.967	7.95
504.315	7.97
504.663	7.98
505.011	7.99
505.359	8
505.707	8.01
506.055	8.02
506.403	8.04
506.751	8.06
507.098	8.08
507.446	8.09
507.794	8.11
508.141	8.13
508.489	8.15
508.837	8.16
509.184	8.18
509.531	8.19
509.879	8.21
510.226	8.23
510.574	8.25
510.921	8.26
511.268	8.27
511.616	8.29
511.963	8.29
512.31	8.3
512.657	8.32
513.004	8.33
513.351	8.35
513.698	8.36
514.045	8.37
514.392	8.38
514.739	8.4
515.086	8.41
515.432	8.43
515.779	8.45
516.126	8.46
516.473	8.48
516.819	8.49
517.166	8.5
517.512	8.51
517.859	8.52
518.205	8.53
518.552	8.53
518.898	8.54
519.245	8.55
519.591	8.56
519.937	8.56
520.283	8.57
520.629	8.57
520.976	8.58
521.322	8.59
521.668	8.6
522.014	8.6
522.36	8.61
522.706	8.61
523.052	8.65
523.398	8.73
523.743	8.86
524.089	9.03
524.435	9.21
524.781	9.41
525.126	9.61
525.472	9.81
525.817	10.01
526.163	10.2
526.509	10.36
526.854	10.49
527.199	10.59
527.545	10.66
527.89	10.71
528.235	10.74
528.581	10.78
528.926	10.81
529.271	10.85
529.616	10.87
529.961	10.9
530.306	10.9
530.651	10.87
530.996	10.79
531.341	10.68
531.686	10.55
532.031	10.38
532.376	10.17
532.721	9.95
533.065	9.73
533.41	9.54
533.755	9.34
534.099	9.2
534.444	9.1
534.788	9.02
535.133	8.97
535.477	8.92
535.822	8.87
536.166	8.83
536.51	8.79
536.855	8.77
537.199	8.75
537.543	8.74
537.887	8.76
538.231	8.78
538.576	8.8
538.92	8.83
539.264	8.88
539.608	8.94
539.951	9.01
540.295	9.05
540.639	9.07
540.983	9.09
541.327	9.07
541.671	9.06
542.014	9.06
542.358	9.07
542.701	9.07
543.045	9.07
543.389	9.07
543.732	9.07
544.075	9.07
544.419	9.06
544.762	9.05
545.105	9.02
545.449	8.99
545.792	8.95
546.135	8.91
546.478	8.87
546.821	8.83
547.165	8.82
547.508	8.83
547.851	8.84
548.194	8.87
548.536	8.92
548.879	8.93
549.222	8.93
549.565	8.91
549.908	8.91
550.25	8.91
550.593	8.91
550.936	8.91
551.278	8.91
551.621	8.9
551.963	8.89
552.306	8.89
552.648	8.89
552.991	8.88
553.333	8.88
553.675	8.89
554.017	8.89
554.36	8.9
554.702	8.9
555.044	8.89
555.386	8.89
555.728	8.88
556.07	8.88
556.412	8.87
556.754	8.88
557.096	8.87
557.438	8.87
557.78	8.87
558.121	8.87
558.463	8.87
558.805	8.89
559.147	8.9
559.488	8.9
559.83	8.91
560.171	8.91
560.513	8.91
560.854	8.91
561.196	8.92
561.537	8.93
561.878	8.94
562.22	8.95
562.561	8.96
562.902	8.98
563.243	8.99
563.584	9
563.925	9.01
564.266	9.02
564.607	9.02
564.948	9.02
565.289	9.03
565.63	9.03
565.971	9.04
566.312	9.05
566.653	9.06
566.993	9.06
567.334	9.07
567.675	9.07
568.015	9.08
568.356	9.08
568.696	9.09
569.037	9.09
569.377	9.09
569.718	9.1
570.058	9.09
570.398	9.1
570.739	9.1
571.079	9.12
571.419	9.12
571.759	9.13
572.099	9.12
572.439	9.13
572.779	9.15
573.119	9.15
573.459	9.14
573.799	9.14
574.139	9.15
574.479	9.15
574.819	9.16
575.158	9.16
575.498	9.17
575.838	9.17
576.177	9.17
576.517	9.18
576.856	9.17
577.196	9.17
577.535	9.17
577.875	9.17
578.214	9.16
578.553	9.16
578.893	9.15
579.232	9.15
579.571	9.13
579.91	9.12
580.25	9.12
580.589	9.12
580.928	9.12
581.267	9.12
581.606	9.13
581.945	9.12
582.283	9.11
582.622	9.11
582.961	9.11
583.3	9.12
583.639	9.13
583.977	9.13
584.316	9.13
584.654	9.14
584.993	9.16
585.332	9.17
585.67	9.18
586.008	9.2
586.347	9.21
586.685	9.23
587.024	9.23
587.362	9.23
587.7	9.24
588.038	9.24
588.376	9.25
588.715	9.26
589.053	9.26
589.391	9.27
589.729	9.26
590.067	9.26
590.404	9.28
590.742	9.28
591.08	9.29
591.418	9.29
591.756	9.3
592.093	9.3
592.431	9.3
592.769	9.31
593.106	9.3
593.444	9.31
593.781	9.32
594.119	9.32
594.456	9.33
594.793	9.34
595.131	9.33
595.468	9.33
595.805	9.33
596.143	9.33
596.48	9.34
596.817	9.36
597.154	9.36
597.491	9.35
597.828	9.35
598.165	9.34
598.502	9.34
598.839	9.35
599.176	9.35
599.512	9.35
599.849	9.34
600.186	9.35
600.523	9.34
600.859	9.35
601.196	9.36
601.532	9.37
601.869	9.38
602.205	9.41
602.542	9.41
602.878	9.42
603.215	9.44
603.551	9.44
603.887	9.43
604.223	9.45
604.56	9.44
604.896	9.45
605.232	9.47
605.568	9.48
605.904	9.49
606.24	9.5
606.576	9.52
606.912	9.53
607.248	9.55
607.583	9.56
607.919	9.55
608.255	9.56
608.591	9.55
608.926	9.55
609.262	9.54
609.597	9.55
609.933	9.55
610.268	9.54
610.604	9.54
610.939	9.55
611.275	9.53
611.61	9.55
611.945	9.54
612.281	9.54
612.616	9.54
612.951	9.53
613.286	9.54
613.621	9.52
613.956	9.52
614.291	9.53
614.626	9.53
614.961	9.54
615.296	9.54
615.631	9.55
615.966	9.54
616.3	9.56
616.635	9.57
616.97	9.56
617.304	9.56
617.639	9.57
617.973	9.58
618.308	9.6
618.642	9.59
618.977	9.6
619.311	9.59
619.646	9.61
619.98	9.6
620.314	9.59
620.648	9.62
620.983	9.61
621.317	9.6
621.651	9.62
621.985	9.62
622.319	9.63
622.653	9.63
622.987	9.65
623.321	9.65
623.655	9.65
623.988	9.67
624.322	9.68
624.656	9.69
624.99	9.7
625.323	9.71
625.657	9.72
625.99	9.73
626.324	9.75
626.657	9.75
626.991	9.76
627.324	9.76
627.658	9.77
627.991	9.76
628.324	9.78
628.657	9.77
628.991	9.78
629.324	9.79
629.657	9.8
629.99	9.79
630.323	9.79
630.656	9.79
630.989	9.8
631.322	9.8
631.655	9.8
631.987	9.79
632.32	9.79
632.653	9.8
632.986	9.8
633.318	9.79
633.651	9.78
633.984	9.77
634.316	9.79
634.649	9.77
634.981	9.8
635.313	9.79
635.646	9.81
635.978	9.81
636.31	9.8
636.643	9.8
636.975	9.82
637.307	9.82
637.639	9.81
637.971	9.82
638.303	9.81
638.635	9.82
638.967	9.83
639.299	9.82
639.631	9.83
639.963	9.83
640.295	9.84
640.626	9.89
640.958	9.91
641.29	9.91
641.621	9.92
641.953	9.94
642.285	9.95
642.616	9.96
642.948	9.95
643.279	9.95
643.61	9.95
643.942	9.95
644.273	9.97
644.604	9.98
644.936	10
645.267	10.02
645.598	10.02
645.929	10.03
646.26	10.04
646.591	10.04
646.922	10.06
647.253	10.05
647.584	10.02
647.915	10.03
648.245	10.04
648.576	10.05
648.907	10.02
649.238	10.01
649.568	9.99
649.899	10
650.229	10.01
650.56	10.02
650.89	10.03
651.221	10.04
651.551	10.05
651.882	10.05
652.212	10.05
652.542	10.05
652.872	10.05
653.203	10.07
653.533	10.08
653.863	10.05
654.193	10.07
654.523	10.06
654.853	10.05
655.183	10.06
655.513	10.07
655.843	10.08
656.172	10.11
656.502	10.14
656.832	10.16
657.162	10.15
657.491	10.15
657.821	10.17
658.15	10.17
658.48	10.19
658.809	10.17
659.139	10.16
659.468	10.19
659.798	10.2
660.127	10.21
660.456	10.21
660.785	10.24
661.115	10.25
661.444	10.25
661.773	10.27
662.102	10.28
662.431	10.29
662.76	10.3
663.089	10.28
663.418	10.29
663.747	10.3
664.076	10.32
664.404	10.33
664.733	10.33
665.062	10.34
665.39	10.32
665.719	10.33
666.048	10.37
666.376	10.37
666.705	10.37
667.033	10.38
667.362	10.38
667.69	10.38
668.018	10.39
668.347	10.39
668.675	10.4
669.003	10.41
669.331	10.4
669.659	10.41
669.987	10.42
670.315	10.4
670.643	10.4
670.971	10.42
671.299	10.42
671.627	10.42
671.955	10.41
672.283	10.44
672.61	10.46
672.938	10.42
673.266	10.43
673.593	10.45
673.921	10.46
674.249	10.46
674.576	10.49
674.904	10.5
675.231	10.5
675.558	10.52
675.886	10.54
676.213	10.54
676.54	10.57
676.867	10.59
677.195	10.61
677.522	10.63
677.849	10.64
678.176	10.64
678.503	10.65
