Data from UWBM37214_Reflection_00015.txt Node
Date: Sun May 02 14:05:40 EDT 2021
User: vgr7
Spectrometer: USB2G7710
Scans to average: 10
Trigger mode: 4
Integration Time (sec): 1.000000E-1
Electric dark correction enabled: true
Boxcar width: 20
XAxis mode: Wavelengths
Number of Pixels in Spectrum: 2048
>>>>>Begin Spectral Data<<<<<
177.721	477.63
178.105	879.66
178.488	-10230
178.871	1087.5
179.254	344.22
179.636	222.15
180.019	123.97
180.402	98.74
180.785	82.62
181.168	73.13
181.55	54.79
181.933	56.7
182.316	48.63
182.698	44.64
183.081	39.5
183.463	38.11
183.846	35.56
184.228	36.24
184.611	31.43
184.993	31.3
185.376	34.29
185.758	34.82
186.14	36.46
186.522	35.37
186.904	32.72
187.287	30.69
187.669	27.03
188.051	26.77
188.433	27.23
188.815	26.06
189.197	27.5
189.579	27.48
189.961	26.35
190.342	23.63
190.724	23.57
191.106	22.42
191.488	22.57
191.869	20.99
192.251	19.14
192.633	17.95
193.014	16.38
193.396	14.33
193.777	15.33
194.159	16.17
194.54	16.25
194.922	12.97
195.303	11.95
195.684	10.75
196.065	9.36
196.447	8.68
196.828	7.82
197.209	7.76
197.59	5.03
197.971	6.6
198.352	7.36
198.733	9.02
199.114	9.36
199.495	10.58
199.876	9.44
200.257	10.86
200.638	9.84
201.018	10.28
201.399	10.4
201.78	9.65
202.16	9.93
202.541	12.67
202.922	13.05
203.302	13.32
203.683	13.92
204.063	14.07
204.444	12.84
204.824	12.12
205.204	9.72
205.585	9.07
205.965	10.17
206.345	10.31
206.725	11.08
207.106	9.77
207.486	11.07
207.866	11.91
208.246	11.38
208.626	11.31
209.006	10.55
209.386	9.9
209.766	8.2
210.145	6.5
210.525	9.2
210.905	10.85
211.285	9.88
211.664	10.82
212.044	11.01
212.424	11.33
212.803	10.84
213.183	10.92
213.562	11.81
213.942	11.96
214.321	10.85
214.701	10.43
215.08	9.83
215.459	10.22
215.838	9.61
216.218	9.75
216.597	7.96
216.976	8.31
217.355	8.69
217.734	8.54
218.113	7.85
218.492	8.3
218.871	8.38
219.25	8.25
219.629	7.9
220.008	8.63
220.387	7.97
220.766	8.88
221.144	8.85
221.523	8.05
221.902	8.32
222.28	8.27
222.659	8.54
223.037	7.53
223.416	7.97
223.794	8.26
224.173	8.44
224.551	8.38
224.929	8.47
225.308	8.36
225.686	8.74
226.064	8.79
226.442	8.16
226.821	8.69
227.199	8.76
227.577	8.21
227.955	8.02
228.333	8.12
228.711	7.78
229.089	6.46
229.467	6.06
229.845	5.89
230.222	5.41
230.6	5.23
230.978	5.15
231.356	5.25
231.733	5.05
232.111	4.69
232.488	4.33
232.866	4.03
233.243	3.67
233.621	3.56
233.998	3.52
234.376	3.59
234.753	3.33
235.13	3.3
235.508	3.44
235.885	3.28
236.262	3.24
236.639	3.22
237.016	3.19
237.393	3.11
237.77	3.11
238.147	3.02
238.524	2.99
238.901	2.81
239.278	2.82
239.655	2.79
240.032	2.77
240.409	2.73
240.785	2.8
241.162	2.83
241.539	2.76
241.915	2.81
242.292	2.78
242.668	2.76
243.045	2.75
243.421	2.74
243.798	2.74
244.174	2.78
244.551	2.83
244.927	2.84
245.303	2.84
245.679	2.87
246.056	2.82
246.432	2.82
246.808	2.8
247.184	2.8
247.56	2.84
247.936	2.88
248.312	2.89
248.688	2.91
249.064	2.92
249.44	2.92
249.815	2.9
250.191	2.88
250.567	2.87
250.943	2.81
251.318	2.8
251.694	2.82
252.069	2.77
252.445	2.77
252.82	2.8
253.196	2.76
253.571	2.76
253.947	2.76
254.322	2.74
254.697	2.72
255.073	2.7
255.448	2.7
255.823	2.68
256.198	2.66
256.573	2.63
256.948	2.64
257.323	2.6
257.698	2.57
258.073	2.53
258.448	2.53
258.823	2.51
259.198	2.52
259.573	2.5
259.948	2.5
260.322	2.49
260.697	2.49
261.072	2.47
261.446	2.49
261.821	2.49
262.195	2.47
262.57	2.45
262.944	2.42
263.319	2.42
263.693	2.42
264.067	2.41
264.442	2.38
264.816	2.36
265.19	2.36
265.564	2.37
265.938	2.36
266.313	2.38
266.687	2.38
267.061	2.38
267.435	2.41
267.809	2.4
268.183	2.39
268.556	2.38
268.93	2.38
269.304	2.39
269.678	2.4
270.051	2.39
270.425	2.38
270.799	2.38
271.172	2.4
271.546	2.41
271.919	2.4
272.293	2.39
272.666	2.4
273.04	2.41
273.413	2.45
273.787	2.45
274.16	2.45
274.533	2.45
274.906	2.44
275.279	2.43
275.653	2.43
276.026	2.41
276.399	2.41
276.772	2.42
277.145	2.41
277.518	2.44
277.891	2.46
278.263	2.47
278.636	2.48
279.009	2.46
279.382	2.47
279.755	2.49
280.127	2.52
280.5	2.52
280.872	2.53
281.245	2.54
281.617	2.53
281.99	2.55
282.362	2.54
282.735	2.52
283.107	2.52
283.479	2.51
283.852	2.53
284.224	2.54
284.596	2.54
284.968	2.54
285.34	2.56
285.713	2.56
286.085	2.57
286.457	2.57
286.829	2.57
287.201	2.59
287.572	2.6
287.944	2.61
288.316	2.61
288.688	2.61
289.06	2.63
289.431	2.65
289.803	2.66
290.175	2.69
290.546	2.72
290.918	2.75
291.289	2.78
291.661	2.81
292.032	2.8
292.403	2.82
292.775	2.83
293.146	2.85
293.517	2.87
293.889	2.89
294.26	2.92
294.631	2.94
295.002	2.97
295.373	2.98
295.744	2.99
296.115	3.01
296.486	3.04
296.857	3.07
297.228	3.09
297.599	3.13
297.97	3.17
298.34	3.2
298.711	3.24
299.082	3.26
299.452	3.29
299.823	3.32
300.194	3.35
300.564	3.39
300.935	3.42
301.305	3.46
301.676	3.49
302.046	3.53
302.416	3.56
302.787	3.58
303.157	3.61
303.527	3.64
303.897	3.69
304.267	3.72
304.637	3.76
305.008	3.79
305.378	3.84
305.748	3.87
306.117	3.9
306.487	3.97
306.857	4.01
307.227	4.07
307.597	4.11
307.967	4.14
308.336	4.18
308.706	4.21
309.076	4.23
309.445	4.27
309.815	4.31
310.184	4.34
310.554	4.36
310.923	4.41
311.293	4.44
311.662	4.48
312.031	4.52
312.401	4.55
312.77	4.57
313.139	4.6
313.508	4.65
313.877	4.68
314.246	4.73
314.616	4.77
314.985	4.81
315.353	4.84
315.722	4.87
316.091	4.9
316.46	4.92
316.829	4.96
317.198	5
317.567	5.03
317.935	5.08
318.304	5.14
318.672	5.19
319.041	5.23
319.41	5.28
319.778	5.33
320.147	5.36
320.515	5.39
320.883	5.42
321.252	5.45
321.62	5.47
321.988	5.49
322.357	5.53
322.725	5.56
323.093	5.59
323.461	5.61
323.829	5.66
324.197	5.7
324.565	5.73
324.933	5.76
325.301	5.78
325.669	5.83
326.037	5.86
326.405	5.88
326.772	5.9
327.14	5.91
327.508	5.94
327.875	5.96
328.243	5.98
328.61	5.99
328.978	6
329.346	6.01
329.713	6.03
330.08	6.04
330.448	6.04
330.815	6.05
331.182	6.07
331.55	6.09
331.917	6.11
332.284	6.12
332.651	6.15
333.018	6.18
333.385	6.18
333.752	6.19
334.119	6.21
334.486	6.22
334.853	6.23
335.22	6.25
335.587	6.26
335.954	6.29
336.32	6.3
336.687	6.31
337.054	6.33
337.42	6.35
337.787	6.37
338.153	6.39
338.52	6.4
338.886	6.4
339.253	6.41
339.619	6.42
339.986	6.42
340.352	6.43
340.718	6.44
341.084	6.43
341.451	6.44
341.817	6.46
342.183	6.49
342.549	6.5
342.915	6.51
343.281	6.53
343.647	6.54
344.013	6.55
344.379	6.57
344.745	6.58
345.11	6.59
345.476	6.61
345.842	6.63
346.208	6.64
346.573	6.65
346.939	6.66
347.304	6.67
347.67	6.66
348.035	6.65
348.401	6.66
348.766	6.67
349.132	6.68
349.497	6.68
349.862	6.69
350.228	6.7
350.593	6.71
350.958	6.7
351.323	6.7
351.688	6.7
352.053	6.7
352.418	6.69
352.783	6.68
353.148	6.67
353.513	6.67
353.878	6.65
354.243	6.64
354.608	6.62
354.972	6.62
355.337	6.6
355.702	6.59
356.066	6.58
356.431	6.57
356.795	6.55
357.16	6.52
357.524	6.52
357.889	6.51
358.253	6.48
358.618	6.46
358.982	6.45
359.346	6.43
359.71	6.41
360.075	6.4
360.439	6.37
360.803	6.34
361.167	6.32
361.531	6.31
361.895	6.28
362.259	6.26
362.623	6.24
362.987	6.22
363.351	6.2
363.714	6.17
364.078	6.14
364.442	6.11
364.806	6.08
365.169	6.06
365.533	6.03
365.896	6
366.26	5.97
366.623	5.94
366.987	5.9
367.35	5.87
367.714	5.84
368.077	5.81
368.44	5.77
368.803	5.73
369.167	5.7
369.53	5.65
369.893	5.61
370.256	5.58
370.619	5.53
370.982	5.5
371.345	5.46
371.708	5.42
372.071	5.38
372.434	5.34
372.797	5.29
373.159	5.26
373.522	5.23
373.885	5.19
374.247	5.15
374.61	5.11
374.973	5.06
375.335	5.02
375.698	4.98
376.06	4.94
376.423	4.9
376.785	4.86
377.147	4.83
377.51	4.8
377.872	4.76
378.234	4.72
378.596	4.69
378.958	4.65
379.321	4.62
379.683	4.59
380.045	4.54
380.407	4.51
380.769	4.48
381.13	4.44
381.492	4.41
381.854	4.39
382.216	4.35
382.578	4.32
382.939	4.29
383.301	4.27
383.663	4.24
384.024	4.22
384.386	4.2
384.747	4.17
385.109	4.14
385.47	4.11
385.832	4.08
386.193	4.05
386.554	4.02
386.916	4
387.277	3.97
387.638	3.94
387.999	3.92
388.36	3.89
388.721	3.86
389.082	3.84
389.443	3.81
389.804	3.79
390.165	3.77
390.526	3.75
390.887	3.72
391.248	3.7
391.609	3.69
391.969	3.66
392.33	3.64
392.691	3.62
393.051	3.6
393.412	3.58
393.772	3.56
394.133	3.53
394.493	3.51
394.854	3.49
395.214	3.47
395.574	3.45
395.935	3.43
396.295	3.4
396.655	3.38
397.015	3.36
397.376	3.35
397.736	3.32
398.096	3.3
398.456	3.29
398.816	3.27
399.176	3.25
399.535	3.23
399.895	3.21
400.255	3.2
400.615	3.18
400.975	3.17
401.334	3.15
401.694	3.13
402.054	3.12
402.413	3.11
402.773	3.09
403.132	3.09
403.492	3.08
403.851	3.07
404.211	3.06
404.57	3.05
404.929	3.04
405.288	3.03
405.648	3.02
406.007	3.02
406.366	3.01
406.725	3
407.084	2.99
407.443	2.99
407.802	2.98
408.161	2.97
408.52	2.97
408.879	2.96
409.238	2.95
409.596	2.94
409.955	2.94
410.314	2.94
410.673	2.93
411.031	2.93
411.39	2.92
411.748	2.91
412.107	2.91
412.465	2.91
412.824	2.92
413.182	2.92
413.54	2.93
413.899	2.94
414.257	2.95
414.615	2.97
414.974	2.99
415.332	3
415.69	3.02
416.048	3.03
416.406	3.05
416.764	3.06
417.122	3.08
417.48	3.09
417.838	3.1
418.195	3.11
418.553	3.12
418.911	3.12
419.269	3.12
419.626	3.12
419.984	3.11
420.342	3.1
420.699	3.08
421.057	3.06
421.414	3.05
421.772	3.03
422.129	3.02
422.486	3.02
422.844	3.01
423.201	3
423.558	3
423.915	2.99
424.273	2.99
424.63	2.98
424.987	2.98
425.344	2.98
425.701	2.97
426.058	2.97
426.415	2.97
426.772	2.96
427.128	2.95
427.485	2.94
427.842	2.93
428.199	2.92
428.555	2.91
428.912	2.89
429.269	2.87
429.625	2.85
429.982	2.83
430.338	2.81
430.695	2.79
431.051	2.77
431.407	2.75
431.764	2.74
432.12	2.73
432.476	2.72
432.832	2.71
433.189	2.71
433.545	2.72
433.901	2.72
434.257	2.74
434.613	2.75
434.969	2.76
435.325	2.78
435.681	2.81
436.036	2.82
436.392	2.84
436.748	2.85
437.104	2.85
437.459	2.87
437.815	2.88
438.171	2.89
438.526	2.91
438.882	2.93
439.237	2.95
439.593	2.97
439.948	2.99
440.304	3.02
440.659	3.03
441.014	3.05
441.369	3.06
441.725	3.08
442.08	3.09
442.435	3.09
442.79	3.1
443.145	3.1
443.5	3.1
443.855	3.1
444.21	3.1
444.565	3.09
444.92	3.09
445.275	3.08
445.629	3.07
445.984	3.06
446.339	3.05
446.693	3.04
447.048	3.02
447.403	3.01
447.757	2.99
448.112	2.97
448.466	2.96
448.82	2.94
449.175	2.92
449.529	2.91
449.883	2.89
450.238	2.87
450.592	2.87
450.946	2.86
451.3	2.85
451.654	2.86
452.008	2.86
452.362	2.86
452.716	2.86
453.07	2.86
453.424	2.85
453.778	2.85
454.132	2.84
454.486	2.83
454.839	2.82
455.193	2.81
455.547	2.8
455.9	2.78
456.254	2.77
456.607	2.75
456.961	2.73
457.314	2.72
457.668	2.72
458.021	2.72
458.375	2.72
458.728	2.72
459.081	2.72
459.434	2.73
459.787	2.73
460.141	2.75
460.494	2.75
460.847	2.76
461.2	2.77
461.553	2.78
461.906	2.78
462.259	2.79
462.611	2.79
462.964	2.8
463.317	2.81
463.67	2.81
464.022	2.82
464.375	2.83
464.728	2.84
465.08	2.84
465.433	2.85
465.785	2.86
466.138	2.85
466.49	2.85
466.843	2.84
467.195	2.83
467.547	2.82
467.899	2.81
468.252	2.8
468.604	2.79
468.956	2.78
469.308	2.77
469.66	2.77
470.012	2.77
470.364	2.78
470.716	2.78
471.068	2.79
471.42	2.81
471.772	2.82
472.123	2.83
472.475	2.83
472.827	2.84
473.178	2.85
473.53	2.85
473.882	2.86
474.233	2.88
474.585	2.9
474.936	2.94
475.288	3
475.639	3.07
475.99	3.16
476.342	3.26
476.693	3.36
477.044	3.47
477.395	3.58
477.746	3.7
478.097	3.81
478.448	3.93
478.8	4.04
479.15	4.15
479.501	4.25
479.852	4.34
480.203	4.42
480.554	4.5
480.905	4.58
481.255	4.65
481.606	4.72
481.957	4.79
482.307	4.85
482.658	4.91
483.009	4.97
483.359	5.02
483.709	5.08
484.06	5.13
484.41	5.19
484.761	5.24
485.111	5.29
485.461	5.34
485.811	5.38
486.162	5.42
486.512	5.46
486.862	5.49
487.212	5.51
487.562	5.53
487.912	5.54
488.262	5.55
488.612	5.55
488.961	5.54
489.311	5.52
489.661	5.48
490.011	5.43
490.36	5.37
490.71	5.29
491.06	5.21
491.409	5.13
491.759	5.04
492.108	4.95
492.458	4.85
492.807	4.75
493.157	4.65
493.506	4.55
493.855	4.46
494.204	4.38
494.554	4.3
494.903	4.23
495.252	4.16
495.601	4.1
495.95	4.04
496.299	3.98
496.648	3.93
496.997	3.89
497.346	3.85
497.695	3.82
498.043	3.78
498.392	3.75
498.741	3.73
499.09	3.7
499.438	3.68
499.787	3.67
500.135	3.66
500.484	3.65
500.832	3.66
501.181	3.68
501.529	3.71
501.878	3.74
502.226	3.79
502.574	3.84
502.923	3.9
503.271	3.96
503.619	4.02
503.967	4.09
504.315	4.15
504.663	4.22
505.011	4.29
505.359	4.36
505.707	4.43
506.055	4.51
506.403	4.59
506.751	4.67
507.098	4.76
507.446	4.85
507.794	4.94
508.141	5.04
508.489	5.14
508.837	5.26
509.184	5.37
509.531	5.49
509.879	5.61
510.226	5.74
510.574	5.88
510.921	6.03
511.268	6.18
511.616	6.33
511.963	6.49
512.31	6.66
512.657	6.83
513.004	6.99
513.351	7.15
513.698	7.3
514.045	7.44
514.392	7.59
514.739	7.72
515.086	7.84
515.432	7.98
515.779	8.1
516.126	8.24
516.473	8.38
516.819	8.53
517.166	8.69
517.512	8.87
517.859	9.06
518.205	9.27
518.552	9.49
518.898	9.73
519.245	10
519.591	10.32
519.937	10.69
520.283	11.12
520.629	11.58
520.976	12.07
521.322	12.58
521.668	13.11
522.014	13.64
522.36	14.17
522.706	14.7
523.052	15.22
523.398	15.7
523.743	16.16
524.089	16.57
524.435	16.96
524.781	17.34
525.126	17.71
525.472	18.08
525.817	18.44
526.163	18.79
526.509	19.14
526.854	19.48
527.199	19.82
527.545	20.16
527.89	20.51
528.235	20.86
528.581	21.19
528.926	21.51
529.271	21.81
529.616	22.1
529.961	22.37
530.306	22.64
530.651	22.9
530.996	23.13
531.341	23.34
531.686	23.54
532.031	23.73
532.376	23.93
532.721	24.15
533.065	24.39
533.41	24.64
533.755	24.87
534.099	25.08
534.444	25.25
534.788	25.41
535.133	25.56
535.477	25.68
535.822	25.79
536.166	25.86
536.51	25.89
536.855	25.88
537.199	25.84
537.543	25.81
537.887	25.79
538.231	25.81
538.576	25.82
538.92	25.82
539.264	25.82
539.608	25.8
539.951	25.76
540.295	25.72
540.639	25.67
540.983	25.6
541.327	25.52
541.671	25.43
542.014	25.35
542.358	25.28
542.701	25.27
543.045	25.3
543.389	25.36
543.732	25.44
544.075	25.54
544.419	25.64
544.762	25.75
545.105	25.87
545.449	26.01
545.792	26.14
546.135	26.27
546.478	26.38
546.821	26.45
547.165	26.48
547.508	26.46
547.851	26.41
548.194	26.32
548.536	26.2
548.879	26.06
549.222	25.9
549.565	25.74
549.908	25.58
550.25	25.43
550.593	25.33
550.936	25.29
551.278	25.27
551.621	25.3
551.963	25.33
552.306	25.38
552.648	25.45
552.991	25.55
553.333	25.66
553.675	25.8
554.017	25.96
554.36	26.13
554.702	26.33
555.044	26.56
555.386	26.82
555.728	27.12
556.07	27.38
556.412	27.64
556.754	27.85
557.096	28.02
557.438	28.18
557.78	28.33
558.121	28.49
558.463	28.65
558.805	28.81
559.147	28.96
559.488	29.11
559.83	29.27
560.171	29.42
560.513	29.57
560.854	29.72
561.196	29.86
561.537	30
561.878	30.14
562.22	30.27
562.561	30.4
562.902	30.53
563.243	30.66
563.584	30.78
563.925	30.9
564.266	31.04
564.607	31.16
564.948	31.29
565.289	31.41
565.63	31.53
565.971	31.65
566.312	31.77
566.653	31.89
566.993	32
567.334	32.1
567.675	32.21
568.015	32.3
568.356	32.4
568.696	32.49
569.037	32.58
569.377	32.68
569.718	32.76
570.058	32.84
570.398	32.92
570.739	33.01
571.079	33.08
571.419	33.16
571.759	33.23
572.099	33.31
572.439	33.39
572.779	33.46
573.119	33.54
573.459	33.62
573.799	33.69
574.139	33.77
574.479	33.84
574.819	33.91
575.158	33.99
575.498	34.06
575.838	34.13
576.177	34.2
576.517	34.27
576.856	34.34
577.196	34.41
577.535	34.47
577.875	34.54
578.214	34.61
578.553	34.67
578.893	34.73
579.232	34.79
579.571	34.86
579.91	34.92
580.25	34.98
580.589	35.05
580.928	35.11
581.267	35.17
581.606	35.23
581.945	35.3
582.283	35.36
582.622	35.42
582.961	35.48
583.3	35.55
583.639	35.61
583.977	35.66
584.316	35.72
584.654	35.77
584.993	35.83
585.332	35.89
585.67	35.95
586.008	36
586.347	36.05
586.685	36.09
587.024	36.14
587.362	36.18
587.7	36.23
588.038	36.27
588.376	36.32
588.715	36.37
589.053	36.42
589.391	36.46
589.729	36.51
590.067	36.56
590.404	36.61
590.742	36.65
591.08	36.69
591.418	36.73
591.756	36.77
592.093	36.81
592.431	36.85
592.769	36.88
593.106	36.92
593.444	36.95
593.781	36.99
594.119	37.03
594.456	37.05
594.793	37.09
595.131	37.12
595.468	37.15
595.805	37.19
596.143	37.24
596.48	37.28
596.817	37.32
597.154	37.35
597.491	37.38
597.828	37.43
598.165	37.47
598.502	37.51
598.839	37.55
599.176	37.59
599.512	37.62
599.849	37.66
600.186	37.69
600.523	37.73
600.859	37.75
601.196	37.78
601.532	37.81
601.869	37.84
602.205	37.87
602.542	37.9
602.878	37.93
603.215	37.96
603.551	37.99
603.887	38.01
604.223	38.04
604.56	38.07
604.896	38.08
605.232	38.11
605.568	38.13
605.904	38.15
606.24	38.16
606.576	38.19
606.912	38.2
607.248	38.22
607.583	38.24
607.919	38.26
608.255	38.28
608.591	38.3
608.926	38.32
609.262	38.34
609.597	38.36
609.933	38.37
610.268	38.4
610.604	38.42
610.939	38.44
611.275	38.47
611.61	38.49
611.945	38.51
612.281	38.52
612.616	38.53
612.951	38.56
613.286	38.58
613.621	38.61
613.956	38.63
614.291	38.64
614.626	38.66
614.961	38.68
615.296	38.7
615.631	38.73
615.966	38.75
616.3	38.77
616.635	38.79
616.97	38.81
617.304	38.83
617.639	38.87
617.973	38.89
618.308	38.91
618.642	38.94
618.977	38.96
619.311	38.98
619.646	38.99
619.98	39.01
620.314	39.02
620.648	39.04
620.983	39.06
621.317	39.07
621.651	39.07
621.985	39.07
622.319	39.08
622.653	39.1
622.987	39.12
623.321	39.12
623.655	39.13
623.988	39.14
624.322	39.14
624.656	39.14
624.99	39.15
625.323	39.16
625.657	39.16
625.99	39.17
626.324	39.18
626.657	39.19
626.991	39.19
627.324	39.18
627.658	39.19
627.991	39.19
628.324	39.21
628.657	39.22
628.991	39.23
629.324	39.23
629.657	39.24
629.99	39.24
630.323	39.25
630.656	39.26
630.989	39.27
631.322	39.26
631.655	39.27
631.987	39.28
632.32	39.29
632.653	39.31
632.986	39.32
633.318	39.34
633.651	39.35
633.984	39.37
634.316	39.38
634.649	39.4
634.981	39.41
635.313	39.44
635.646	39.48
635.978	39.5
636.31	39.51
636.643	39.53
636.975	39.55
637.307	39.57
637.639	39.59
637.971	39.61
638.303	39.62
638.635	39.64
638.967	39.65
639.299	39.66
639.631	39.68
639.963	39.7
640.295	39.71
640.626	39.73
640.958	39.75
641.29	39.75
641.621	39.76
641.953	39.76
642.285	39.77
642.616	39.77
642.948	39.77
643.279	39.78
643.61	39.79
643.942	39.8
644.273	39.81
644.604	39.81
644.936	39.82
645.267	39.82
645.598	39.83
645.929	39.84
646.26	39.84
646.591	39.85
646.922	39.86
647.253	39.85
647.584	39.85
647.915	39.85
648.245	39.84
648.576	39.85
648.907	39.86
649.238	39.85
649.568	39.84
649.899	39.83
650.229	39.84
650.56	39.83
650.89	39.82
651.221	39.82
651.551	39.82
651.882	39.83
652.212	39.81
652.542	39.82
652.872	39.81
653.203	39.81
653.533	39.82
653.863	39.81
654.193	39.82
654.523	39.82
654.853	39.84
655.183	39.86
655.513	39.87
655.843	39.88
656.172	39.89
656.502	39.91
656.832	39.92
657.162	39.94
657.491	39.95
657.821	39.96
658.15	39.98
658.48	39.99
658.809	40.02
659.139	40.04
659.468	40.05
659.798	40.05
660.127	40.06
660.456	40.07
660.785	40.09
661.115	40.11
661.444	40.13
661.773	40.15
662.102	40.16
662.431	40.17
662.76	40.19
663.089	40.21
663.418	40.23
663.747	40.24
664.076	40.25
664.404	40.27
664.733	40.29
665.062	40.32
665.39	40.34
665.719	40.38
666.048	40.4
666.376	40.42
666.705	40.44
667.033	40.46
667.362	40.48
667.69	40.5
668.018	40.52
668.347	40.54
668.675	40.55
669.003	40.56
669.331	40.58
669.659	40.58
669.987	40.57
670.315	40.6
670.643	40.59
