Data from UWBM42201_Reflection_00012.txt Node
Date: Sun May 02 12:50:41 EDT 2021
User: vgr7
Spectrometer: USB2G7710
Scans to average: 10
Trigger mode: 4
Integration Time (sec): 1.000000E-1
Electric dark correction enabled: true
Boxcar width: 20
XAxis mode: Wavelengths
Number of Pixels in Spectrum: 2048
>>>>>Begin Spectral Data<<<<<
177.721	99.28
178.105	99.38
178.488	98.54
178.871	98.12
179.254	97.69
179.636	96.59
180.019	95.66
180.402	95.08
180.785	94.94
181.168	93.82
181.55	91.5
181.933	108.07
182.316	108.62
182.698	109.69
183.081	110.5
183.463	112.39
183.846	113.91
184.228	115.25
184.611	115.39
184.993	118.17
185.376	120.39
185.758	-48.61
186.14	-8.26
186.522	11.42
186.904	21.64
187.287	30.51
187.669	35.69
188.051	39.16
188.433	46.07
188.815	41.18
189.197	40.31
189.579	37.76
189.961	35.63
190.342	32.82
190.724	31.54
191.106	29.25
191.488	31.23
191.869	25.54
192.251	24.99
192.633	20.96
193.014	19.8
193.396	19.85
193.777	24.83
194.159	26.39
194.54	25
194.922	24.79
195.303	26.15
195.684	26.11
196.065	25.47
196.447	22.18
196.828	20.14
197.209	20.9
197.59	10.73
197.971	9.09
198.352	9.27
198.733	12.34
199.114	13.11
199.495	12
199.876	12.35
200.257	11.6
200.638	12.98
201.018	7.86
201.399	7.93
201.78	5.57
202.16	6
202.541	7.88
202.922	9.26
203.302	6.07
203.683	5.55
204.063	3.71
204.444	4.87
204.824	5.8
205.204	7.11
205.585	15.62
205.965	15.77
206.345	16.71
206.725	13.4
207.106	13.06
207.486	15.1
207.866	15.23
208.246	14.99
208.626	16.32
209.006	20.29
209.386	15.51
209.766	15.17
210.145	14.6
210.525	13.29
210.905	13.56
211.285	13.64
211.664	13.48
212.044	15.05
212.424	16.07
212.803	10.96
213.183	13.56
213.562	14.37
213.942	13.54
214.321	10.1
214.701	8.38
215.08	9.87
215.459	10.35
215.838	10.32
216.218	10.05
216.597	8.73
216.976	4.96
217.355	6.15
217.734	6.4
218.113	7.17
218.492	6.77
218.871	7.61
219.25	8.02
219.629	7.13
220.008	6.31
220.387	6.58
220.766	7.96
221.144	7.32
221.523	8.48
221.902	8.09
222.28	8.87
222.659	10.02
223.037	8.91
223.416	9.9
223.794	10.76
224.173	10.5
224.551	10.09
224.929	10.76
225.308	11.42
225.686	11.1
226.064	11.22
226.442	11.07
226.821	11.17
227.199	10.52
227.577	9.92
227.955	9.28
228.333	9.17
228.711	8.97
229.089	9.11
229.467	8.47
229.845	8.92
230.222	8.97
230.6	9.41
230.978	9.11
231.356	8.27
231.733	8
232.111	8
232.488	7.69
232.866	7.51
233.243	6.9
233.621	6.69
233.998	6.49
234.376	6.54
234.753	6.56
235.13	6.59
235.508	7.05
235.885	7.09
236.262	7.09
236.639	7.08
237.016	6.98
237.393	6.93
237.77	6.65
238.147	6.38
238.524	6.43
238.901	6.38
239.278	6.4
239.655	6.32
240.032	6.29
240.409	6.27
240.785	6.18
241.162	6.21
241.539	6.19
241.915	6.18
242.292	6.13
242.668	6.06
243.045	6.07
243.421	5.96
243.798	5.93
244.174	5.92
244.551	5.85
244.927	5.71
245.303	5.65
245.679	5.65
246.056	5.55
246.432	5.54
246.808	5.34
247.184	5.33
247.56	5.29
247.936	5.31
248.312	5.32
248.688	5.43
249.064	5.39
249.44	5.36
249.815	5.33
250.191	5.28
250.567	5.27
250.943	5.32
251.318	5.3
251.694	5.23
252.069	5.18
252.445	5.18
252.82	5.26
253.196	5.28
253.571	5.28
253.947	5.36
254.322	5.31
254.697	5.42
255.073	5.41
255.448	5.39
255.823	5.34
256.198	5.27
256.573	5.09
256.948	5.07
257.323	5.07
257.698	5
258.073	5
258.448	4.87
258.823	4.86
259.198	4.85
259.573	4.85
259.948	4.89
260.322	4.85
260.697	4.84
261.072	4.83
261.446	4.82
261.821	4.8
262.195	4.76
262.57	4.74
262.944	4.72
263.319	4.7
263.693	4.7
264.067	4.69
264.442	4.79
264.816	4.77
265.19	4.75
265.564	4.78
265.938	4.73
266.313	4.78
266.687	4.74
267.061	4.74
267.435	4.72
267.809	4.7
268.183	4.68
268.556	4.7
268.93	4.68
269.304	4.64
269.678	4.61
270.051	4.58
270.425	4.58
270.799	4.58
271.172	4.6
271.546	4.59
271.919	4.59
272.293	4.57
272.666	4.57
273.04	4.57
273.413	4.51
273.787	4.49
274.16	4.49
274.533	4.51
274.906	4.49
275.279	4.5
275.653	4.49
276.026	4.47
276.399	4.44
276.772	4.43
277.145	4.44
277.518	4.47
277.891	4.49
278.263	4.52
278.636	4.52
279.009	4.55
279.382	4.52
279.755	4.48
280.127	4.49
280.5	4.49
280.872	4.49
281.245	4.6
281.617	4.6
281.99	4.63
282.362	4.65
282.735	4.65
283.107	4.64
283.479	4.66
283.852	4.66
284.224	4.69
284.596	4.69
284.968	4.59
285.34	4.59
285.713	4.59
286.085	4.53
286.457	4.54
286.829	4.53
287.201	4.56
287.572	4.62
287.944	4.65
288.316	4.69
288.688	4.74
289.06	4.75
289.431	4.78
289.803	4.8
290.175	4.84
290.546	4.87
290.918	4.9
291.289	4.9
291.661	4.95
292.032	4.94
292.403	5
292.775	5.1
293.146	5.12
293.517	5.16
293.889	5.24
294.26	5.26
294.631	5.3
295.002	5.36
295.373	5.42
295.744	5.44
296.115	5.47
296.486	5.45
296.857	5.48
297.228	5.51
297.599	5.54
297.97	5.57
298.34	5.62
298.711	5.61
299.082	5.64
299.452	5.69
299.823	5.76
300.194	5.81
300.564	5.83
300.935	5.88
301.305	5.89
301.676	5.92
302.046	5.97
302.416	6
302.787	6.05
303.157	6.02
303.527	6.08
303.897	6.14
304.267	6.2
304.637	6.25
305.008	6.31
305.378	6.36
305.748	6.41
306.117	6.52
306.487	6.61
306.857	6.71
307.227	6.75
307.597	6.78
307.967	6.83
308.336	6.89
308.706	6.96
309.076	7.01
309.445	7.05
309.815	7
310.184	7.06
310.554	7.06
310.923	7.14
311.293	7.2
311.662	7.25
312.031	7.3
312.401	7.33
312.77	7.36
313.139	7.41
313.508	7.49
313.877	7.48
314.246	7.51
314.616	7.53
314.985	7.52
315.353	7.58
315.722	7.63
316.091	7.68
316.46	7.73
316.829	7.8
317.198	7.86
317.567	8.05
317.935	8.1
318.304	8.21
318.672	8.29
319.041	8.35
319.41	8.42
319.778	8.51
320.147	8.59
320.515	8.66
320.883	8.71
321.252	8.71
321.62	8.82
321.988	8.87
322.357	8.93
322.725	9.03
323.093	9.08
323.461	9.12
323.829	9.17
324.197	9.21
324.565	9.24
324.933	9.28
325.301	9.3
325.669	9.35
326.037	9.39
326.405	9.39
326.772	9.42
327.14	9.47
327.508	9.5
327.875	9.54
328.243	9.57
328.61	9.55
328.978	9.62
329.346	9.66
329.713	9.68
330.08	9.72
330.448	9.74
330.815	9.75
331.182	9.79
331.55	9.83
331.917	9.87
332.284	9.92
332.651	9.97
333.018	10
333.385	10.05
333.752	10.1
334.119	10.14
334.486	10.18
334.853	10.18
335.22	10.22
335.587	10.23
335.954	10.27
336.32	10.32
336.687	10.34
337.054	10.37
337.42	10.41
337.787	10.43
338.153	10.47
338.52	10.55
338.886	10.6
339.253	10.62
339.619	10.65
339.986	10.65
340.352	10.66
340.718	10.69
341.084	10.72
341.451	10.72
341.817	10.74
342.183	10.74
342.549	10.79
342.915	10.8
343.281	10.85
343.647	10.89
344.013	10.92
344.379	10.94
344.745	10.96
345.11	10.97
345.476	11.01
345.842	11.03
346.208	11.03
346.573	11.05
346.939	11.08
347.304	11.07
347.67	11.07
348.035	11.09
348.401	11.1
348.766	11.12
349.132	11.15
349.497	11.17
349.862	11.2
350.228	11.22
350.593	11.24
350.958	11.24
351.323	11.23
351.688	11.24
352.053	11.22
352.418	11.24
352.783	11.23
353.148	11.22
353.513	11.22
353.878	11.22
354.243	11.22
354.608	11.2
354.972	11.22
355.337	11.22
355.702	11.2
356.066	11.21
356.431	11.19
356.795	11.19
357.16	11.17
357.524	11.16
357.889	11.16
358.253	11.14
358.618	11.13
358.982	11.13
359.346	11.12
359.71	11.12
360.075	11.12
360.439	11.11
360.803	11.09
361.167	11.07
361.531	11.07
361.895	11.06
362.259	11.05
362.623	11.03
362.987	11.01
363.351	11
363.714	10.99
364.078	10.97
364.442	10.95
364.806	10.93
365.169	10.89
365.533	10.87
365.896	10.83
366.26	10.81
366.623	10.78
366.987	10.75
367.35	10.73
367.714	10.71
368.077	10.69
368.44	10.66
368.803	10.63
369.167	10.59
369.53	10.56
369.893	10.52
370.256	10.5
370.619	10.47
370.982	10.42
371.345	10.37
371.708	10.33
372.071	10.29
372.434	10.25
372.797	10.22
373.159	10.19
373.522	10.15
373.885	10.1
374.247	10.04
374.61	9.99
374.973	9.93
375.335	9.88
375.698	9.83
376.06	9.78
376.423	9.73
376.785	9.68
377.147	9.63
377.51	9.59
377.872	9.54
378.234	9.49
378.596	9.45
378.958	9.41
379.321	9.36
379.683	9.32
380.045	9.26
380.407	9.22
380.769	9.17
381.13	9.13
381.492	9.09
381.854	9.05
382.216	9
382.578	8.95
382.939	8.91
383.301	8.86
383.663	8.82
384.024	8.77
384.386	8.73
384.747	8.68
385.109	8.62
385.47	8.57
385.832	8.53
386.193	8.49
386.554	8.44
386.916	8.4
387.277	8.36
387.638	8.33
387.999	8.29
388.36	8.25
388.721	8.22
389.082	8.18
389.443	8.14
389.804	8.11
390.165	8.08
390.526	8.04
390.887	8
391.248	7.96
391.609	7.94
391.969	7.9
392.33	7.86
392.691	7.83
393.051	7.79
393.412	7.75
393.772	7.71
394.133	7.68
394.493	7.63
394.854	7.6
395.214	7.55
395.574	7.51
395.935	7.46
396.295	7.43
396.655	7.39
397.015	7.35
397.376	7.3
397.736	7.27
398.096	7.22
398.456	7.19
398.816	7.16
399.176	7.12
399.535	7.08
399.895	7.05
400.255	7.01
400.615	6.98
400.975	6.95
401.334	6.9
401.694	6.87
402.054	6.83
402.413	6.77
402.773	6.74
403.132	6.72
403.492	6.68
403.851	6.66
404.211	6.63
404.57	6.61
404.929	6.59
405.288	6.57
405.648	6.54
406.007	6.52
406.366	6.5
406.725	6.48
407.084	6.45
407.443	6.43
407.802	6.4
408.161	6.37
408.52	6.35
408.879	6.33
409.238	6.31
409.596	6.29
409.955	6.28
410.314	6.26
410.673	6.24
411.031	6.23
411.39	6.21
411.748	6.21
412.107	6.19
412.465	6.19
412.824	6.2
413.182	6.2
413.54	6.21
413.899	6.21
414.257	6.23
414.615	6.27
414.974	6.29
415.332	6.33
415.69	6.36
416.048	6.38
416.406	6.42
416.764	6.45
417.122	6.47
417.48	6.5
417.838	6.52
418.195	6.54
418.553	6.55
418.911	6.55
419.269	6.54
419.626	6.52
419.984	6.49
420.342	6.46
420.699	6.42
421.057	6.38
421.414	6.35
421.772	6.32
422.129	6.3
422.486	6.28
422.844	6.27
423.201	6.25
423.558	6.24
423.915	6.22
424.273	6.21
424.63	6.19
424.987	6.18
425.344	6.17
425.701	6.16
426.058	6.14
426.415	6.13
426.772	6.11
427.128	6.09
427.485	6.05
427.842	6.03
428.199	6
428.555	5.97
428.912	5.93
429.269	5.88
429.625	5.85
429.982	5.8
430.338	5.75
430.695	5.72
431.051	5.66
431.407	5.62
431.764	5.59
432.12	5.54
432.476	5.52
432.832	5.5
433.189	5.49
433.545	5.49
433.901	5.5
434.257	5.52
434.613	5.54
434.969	5.57
435.325	5.6
435.681	5.65
436.036	5.66
436.392	5.68
436.748	5.69
437.104	5.69
437.459	5.71
437.815	5.72
438.171	5.75
438.526	5.77
438.882	5.81
439.237	5.85
439.593	5.89
439.948	5.92
440.304	5.96
440.659	5.99
441.014	6.01
441.369	6.05
441.725	6.06
442.08	6.08
442.435	6.09
442.79	6.1
443.145	6.09
443.5	6.09
443.855	6.09
444.21	6.08
444.565	6.07
444.92	6.05
445.275	6.03
445.629	6.02
445.984	6
446.339	5.99
446.693	5.98
447.048	5.95
447.403	5.93
447.757	5.9
448.112	5.87
448.466	5.84
448.82	5.81
449.175	5.78
449.529	5.76
449.883	5.74
450.238	5.7
450.592	5.69
450.946	5.68
451.3	5.68
451.654	5.68
452.008	5.67
452.362	5.67
452.716	5.67
453.07	5.66
453.424	5.65
453.778	5.63
454.132	5.6
454.486	5.59
454.839	5.56
455.193	5.52
455.547	5.5
455.9	5.45
456.254	5.42
456.607	5.38
456.961	5.34
457.314	5.32
457.668	5.3
458.021	5.29
458.375	5.29
458.728	5.29
459.081	5.29
459.434	5.3
459.787	5.31
460.141	5.32
460.494	5.33
460.847	5.33
461.2	5.34
461.553	5.35
461.906	5.36
462.259	5.37
462.611	5.37
462.964	5.38
463.317	5.39
463.67	5.39
464.022	5.4
464.375	5.4
464.728	5.41
465.08	5.41
465.433	5.42
465.785	5.42
466.138	5.41
466.49	5.4
466.843	5.39
467.195	5.37
467.547	5.36
467.899	5.34
468.252	5.31
468.604	5.3
468.956	5.28
469.308	5.28
469.66	5.29
470.012	5.29
470.364	5.31
470.716	5.33
471.068	5.36
471.42	5.41
471.772	5.44
472.123	5.47
472.475	5.5
472.827	5.52
473.178	5.54
473.53	5.56
473.882	5.59
474.233	5.62
474.585	5.68
474.936	5.77
475.288	5.9
475.639	6.06
475.99	6.26
476.342	6.47
476.693	6.69
477.044	6.92
477.395	7.15
477.746	7.39
478.097	7.62
478.448	7.86
478.8	8.09
479.15	8.31
479.501	8.51
479.852	8.69
480.203	8.85
480.554	9.01
480.905	9.16
481.255	9.31
481.606	9.45
481.957	9.57
482.307	9.69
482.658	9.81
483.009	9.91
483.359	10.02
483.709	10.12
484.06	10.21
484.41	10.31
484.761	10.4
485.111	10.48
485.461	10.56
485.811	10.63
486.162	10.7
486.512	10.76
486.862	10.8
487.212	10.83
487.562	10.85
487.912	10.87
488.262	10.87
488.612	10.86
488.961	10.83
489.311	10.78
489.661	10.68
490.011	10.56
490.36	10.42
490.71	10.25
491.06	10.06
491.409	9.87
491.759	9.68
492.108	9.48
492.458	9.27
492.807	9.05
493.157	8.83
493.506	8.62
493.855	8.43
494.204	8.25
494.554	8.09
494.903	7.94
495.252	7.79
495.601	7.66
495.95	7.52
496.299	7.4
496.648	7.29
496.997	7.18
497.346	7.09
497.695	7
498.043	6.92
498.392	6.84
498.741	6.76
499.09	6.69
499.438	6.63
499.787	6.57
500.135	6.53
500.484	6.5
500.832	6.48
501.181	6.48
501.529	6.49
501.878	6.52
502.226	6.56
502.574	6.61
502.923	6.67
503.271	6.73
503.619	6.8
503.967	6.87
504.315	6.94
504.663	7.01
505.011	7.08
505.359	7.16
505.707	7.24
506.055	7.33
506.403	7.43
506.751	7.53
507.098	7.64
507.446	7.75
507.794	7.88
508.141	8.01
508.489	8.16
508.837	8.3
509.184	8.45
509.531	8.61
509.879	8.78
510.226	8.97
510.574	9.15
510.921	9.35
511.268	9.57
511.616	9.78
511.963	10.02
512.31	10.25
512.657	10.49
513.004	10.73
513.351	10.97
513.698	11.19
514.045	11.41
514.392	11.63
514.739	11.83
515.086	12.03
515.432	12.25
515.779	12.47
516.126	12.71
516.473	12.97
516.819	13.24
517.166	13.53
517.512	13.85
517.859	14.18
518.205	14.55
518.552	14.94
518.898	15.37
519.245	15.85
519.591	16.41
519.937	17.07
520.283	17.83
520.629	18.64
520.976	19.49
521.322	20.37
521.668	21.27
522.014	22.17
522.36	23.07
522.706	23.96
523.052	24.82
523.398	25.65
523.743	26.43
524.089	27.14
524.435	27.81
524.781	28.48
525.126	29.14
525.472	29.79
525.817	30.43
526.163	31.05
526.509	31.66
526.854	32.26
527.199	32.85
527.545	33.44
527.89	34.05
528.235	34.64
528.581	35.2
528.926	35.73
529.271	36.23
529.616	36.69
529.961	37.1
530.306	37.48
530.651	37.85
530.996	38.19
531.341	38.5
531.686	38.79
532.031	39.07
532.376	39.37
532.721	39.69
533.065	40.03
533.41	40.38
533.755	40.69
534.099	40.93
534.444	41.12
534.788	41.29
535.133	41.42
535.477	41.52
535.822	41.57
536.166	41.58
536.51	41.53
536.855	41.41
537.199	41.25
537.543	41.09
537.887	40.97
538.231	40.88
538.576	40.8
538.92	40.69
539.264	40.58
539.608	40.44
539.951	40.27
540.295	40.09
540.639	39.9
540.983	39.69
541.327	39.47
541.671	39.27
542.014	39.07
542.358	38.91
542.701	38.85
543.045	38.83
543.389	38.84
543.732	38.88
544.075	38.95
544.419	39.03
544.762	39.1
545.105	39.2
545.449	39.32
545.792	39.45
546.135	39.57
546.478	39.63
546.821	39.64
547.165	39.58
547.508	39.46
547.851	39.29
548.194	39.06
548.536	38.78
548.879	38.46
549.222	38.13
549.565	37.78
549.908	37.44
550.25	37.14
550.593	36.88
550.936	36.71
551.278	36.6
551.621	36.54
551.963	36.5
552.306	36.47
552.648	36.49
552.991	36.54
553.333	36.6
553.675	36.7
554.017	36.85
554.36	37.01
554.702	37.21
555.044	37.46
555.386	37.75
555.728	38.01
556.07	38.25
556.412	38.48
556.754	38.62
557.096	38.75
557.438	38.88
557.78	39.02
558.121	39.15
558.463	39.28
558.805	39.41
559.147	39.53
559.488	39.66
559.83	39.79
560.171	39.91
560.513	40.04
560.854	40.16
561.196	40.29
561.537	40.41
561.878	40.52
562.22	40.63
562.561	40.76
562.902	40.87
563.243	40.99
563.584	41.1
563.925	41.22
564.266	41.33
564.607	41.43
564.948	41.55
565.289	41.65
565.63	41.76
565.971	41.86
566.312	41.96
566.653	42.05
566.993	42.15
567.334	42.25
567.675	42.34
568.015	42.44
568.356	42.53
568.696	42.61
569.037	42.69
569.377	42.76
569.718	42.84
570.058	42.9
570.398	42.97
570.739	43.03
571.079	43.09
571.419	43.16
571.759	43.22
572.099	43.27
572.439	43.32
572.779	43.39
573.119	43.44
573.459	43.49
573.799	43.54
574.139	43.59
574.479	43.63
574.819	43.67
575.158	43.71
575.498	43.75
575.838	43.79
576.177	43.83
576.517	43.87
576.856	43.9
577.196	43.94
577.535	43.97
577.875	44
578.214	44.03
578.553	44.06
578.893	44.08
579.232	44.11
579.571	44.14
579.91	44.17
580.25	44.2
580.589	44.23
580.928	44.26
581.267	44.29
581.606	44.33
581.945	44.36
582.283	44.39
582.622	44.42
582.961	44.47
583.3	44.51
583.639	44.55
583.977	44.61
584.316	44.65
584.654	44.69
584.993	44.73
585.332	44.77
585.67	44.8
586.008	44.84
586.347	44.89
586.685	44.93
587.024	44.97
587.362	45.01
587.7	45.07
588.038	45.12
588.376	45.17
588.715	45.22
589.053	45.29
589.391	45.34
589.729	45.39
590.067	45.44
590.404	45.5
590.742	45.55
591.08	45.61
591.418	45.66
591.756	45.7
592.093	45.74
592.431	45.8
592.769	45.84
593.106	45.88
593.444	45.91
593.781	45.95
594.119	45.98
594.456	46.02
594.793	46.05
595.131	46.09
595.468	46.12
595.805	46.15
596.143	46.19
596.48	46.23
596.817	46.27
597.154	46.32
597.491	46.36
597.828	46.4
598.165	46.46
598.502	46.5
598.839	46.54
599.176	46.57
599.512	46.61
599.849	46.64
600.186	46.67
600.523	46.7
600.859	46.74
601.196	46.76
601.532	46.79
601.869	46.82
602.205	46.84
602.542	46.88
602.878	46.91
603.215	46.93
603.551	46.95
603.887	46.97
604.223	46.98
604.56	47.01
604.896	47.02
605.232	47.04
605.568	47.05
605.904	47.08
606.24	47.1
606.576	47.12
606.912	47.14
607.248	47.16
607.583	47.17
607.919	47.19
608.255	47.2
608.591	47.21
608.926	47.23
609.262	47.25
609.597	47.27
609.933	47.28
610.268	47.29
610.604	47.3
610.939	47.29
611.275	47.3
611.61	47.3
611.945	47.3
612.281	47.3
612.616	47.31
612.951	47.32
613.286	47.34
613.621	47.34
613.956	47.35
614.291	47.36
614.626	47.36
614.961	47.38
615.296	47.39
615.631	47.39
615.966	47.39
616.3	47.39
616.635	47.39
616.97	47.4
617.304	47.4
617.639	47.4
617.973	47.42
618.308	47.43
618.642	47.44
618.977	47.46
619.311	47.48
619.646	47.5
619.98	47.51
620.314	47.53
620.648	47.55
620.983	47.58
621.317	47.6
621.651	47.61
621.985	47.64
622.319	47.65
622.653	47.67
622.987	47.68
623.321	47.69
623.655	47.71
623.988	47.75
624.322	47.77
624.656	47.8
624.99	47.8
625.323	47.83
625.657	47.84
625.99	47.87
626.324	47.89
626.657	47.91
626.991	47.91
627.324	47.94
627.658	47.95
627.991	47.96
628.324	47.99
628.657	48.01
628.991	48.03
629.324	48.04
629.657	48.07
629.99	48.09
630.323	48.11
630.656	48.12
630.989	48.15
631.322	48.18
631.655	48.19
631.987	48.21
632.32	48.23
632.653	48.24
632.986	48.24
633.318	48.25
633.651	48.25
633.984	48.27
634.316	48.29
634.649	48.29
634.981	48.31
635.313	48.31
635.646	48.32
635.978	48.33
636.31	48.34
636.643	48.36
636.975	48.38
637.307	48.38
637.639	48.38
637.971	48.39
638.303	48.4
638.635	48.41
638.967	48.42
639.299	48.43
639.631	48.44
639.963	48.46
640.295	48.46
640.626	48.49
640.958	48.5
641.29	48.52
641.621	48.53
641.953	48.54
642.285	48.54
642.616	48.57
642.948	48.57
643.279	48.6
643.61	48.61
643.942	48.62
644.273	48.64
644.604	48.66
644.936	48.67
645.267	48.68
645.598	48.69
645.929	48.69
646.26	48.71
646.591	48.71
646.922	48.73
647.253	48.76
647.584	48.77
647.915	48.8
648.245	48.81
648.576	48.84
648.907	48.85
649.238	48.87
649.568	48.87
649.899	48.87
650.229	48.89
650.56	48.91
650.89	48.94
651.221	48.96
651.551	48.99
651.882	49.01
652.212	49.01
652.542	49.02
652.872	49.04
653.203	49.07
653.533	49.07
653.863	49.08
654.193	49.08
654.523	49.08
654.853	49.08
655.183	49.11
655.513	49.13
655.843	49.14
656.172	49.15
656.502	49.15
656.832	49.15
657.162	49.15
657.491	49.16
657.821	49.18
658.15	49.17
658.48	49.17
658.809	49.2
659.139	49.22
659.468	49.25
659.798	49.26
660.127	49.28
660.456	49.32
660.785	49.33
661.115	49.35
661.444	49.36
661.773	49.38
662.102	49.39
662.431	49.39
662.76	49.41
663.089	49.43
663.418	49.44
663.747	49.46
664.076	49.48
664.404	49.48
664.733	49.49
665.062	49.51
665.39	49.53
665.719	49.55
666.048	49.57
666.376	49.58
666.705	49.6
667.033	49.6
667.362	49.59
