Data from UWBM50074_Reflection_00013.txt Node
Date: Sun May 02 12:36:28 EDT 2021
User: vgr7
Spectrometer: USB2G7710
Scans to average: 10
Trigger mode: 4
Integration Time (sec): 1.000000E-1
Electric dark correction enabled: true
Boxcar width: 10
XAxis mode: Wavelengths
Number of Pixels in Spectrum: 2048
>>>>>Begin Spectral Data<<<<<
177.721	-6.45
178.105	-90.91
178.488	488.52
178.871	-296.23
179.254	64
179.636	130
180.019	97.71
180.402	-5.26
180.785	100.67
181.168	115.11
181.55	116.54
181.933	-6.15
182.316	6.4
182.698	29.21
183.081	83.2
183.463	-283.54
183.846	-29.02
184.228	-27.15
184.611	-8.1
184.993	-3.7
185.376	10.54
185.758	18.93
186.14	14.05
186.522	8.95
186.904	9.68
187.287	15.28
187.669	16.28
188.051	9.86
188.433	14.64
188.815	10.88
189.197	10.73
189.579	10.67
189.961	13.85
190.342	13.73
190.724	18.82
191.106	19.65
191.488	23.77
191.869	19.33
192.251	20.85
192.633	19.19
193.014	15.77
193.396	14.78
193.777	13.43
194.159	15.99
194.54	14.93
194.922	14.18
195.303	17.34
195.684	19.15
196.065	19.51
196.447	18.08
196.828	17.85
197.209	17.83
197.59	17.81
197.971	17.65
198.352	20.07
198.733	20.4
199.114	19.12
199.495	15.25
199.876	16.59
200.257	14.96
200.638	16.05
201.018	17.8
201.399	18.62
201.78	16.16
202.16	14.25
202.541	16.22
202.922	13.99
203.302	10.72
203.683	13.23
204.063	11.77
204.444	14.06
204.824	15.74
205.204	18.3
205.585	17.08
205.965	15.16
206.345	13.38
206.725	10.06
207.106	9.77
207.486	11.09
207.866	13.72
208.246	14.55
208.626	13.44
209.006	15.05
209.386	13.23
209.766	14.67
210.145	15.58
210.525	13.82
210.905	15.48
211.285	15.46
211.664	11.39
212.044	12.55
212.424	12
212.803	10.79
213.183	11.94
213.562	13.02
213.942	11.68
214.321	9.06
214.701	7.02
215.08	7.64
215.459	8.76
215.838	8.65
216.218	10.28
216.597	11.47
216.976	9.96
217.355	11.85
217.734	10.84
218.113	8.13
218.492	9.89
218.871	9.37
219.25	9.16
219.629	9.55
220.008	10.1
220.387	9.6
220.766	8.81
221.144	7.64
221.523	9.33
221.902	8.63
222.28	9.79
222.659	11.86
223.037	11.15
223.416	10.19
223.794	9.58
224.173	8
224.551	8.19
224.929	8.42
225.308	9.02
225.686	8.63
226.064	10.02
226.442	9.15
226.821	9.3
227.199	8.74
227.577	8.3
227.955	7.59
228.333	7.36
228.711	7.01
229.089	7.38
229.467	6.83
229.845	8.43
230.222	8.37
230.6	8.36
230.978	8.69
231.356	9.28
231.733	8.81
232.111	9.15
232.488	8.53
232.866	8.09
233.243	7.86
233.621	8.53
233.998	7.89
234.376	8.46
234.753	8.64
235.13	8.98
235.508	9.79
235.885	9.51
236.262	9.11
236.639	9.3
237.016	8.89
237.393	8.58
237.77	7.97
238.147	7.59
238.524	7.46
238.901	7.29
239.278	6.8
239.655	6.72
240.032	6.56
240.409	6.63
240.785	6.51
241.162	6.39
241.539	6.16
241.915	6.13
242.292	6
242.668	5.88
243.045	5.77
243.421	5.55
243.798	5.55
244.174	5.55
244.551	5.39
244.927	5.3
245.303	5.25
245.679	5.3
246.056	5.3
246.432	5.3
246.808	5.26
247.184	5.26
247.56	5.2
247.936	5.2
248.312	5.16
248.688	5.22
249.064	5.18
249.44	5.19
249.815	5.18
250.191	5.15
250.567	5.14
250.943	5.18
251.318	5.19
251.694	5.19
252.069	5.14
252.445	5.22
252.82	5.22
253.196	5.24
253.571	5.17
253.947	5.26
254.322	5.28
254.697	5.26
255.073	5.25
255.448	5.3
255.823	5.22
256.198	5.17
256.573	5.07
256.948	5.03
257.323	4.97
257.698	4.95
258.073	4.92
258.448	4.91
258.823	4.86
259.198	4.87
259.573	4.85
259.948	4.88
260.322	4.86
260.697	4.87
261.072	4.87
261.446	4.88
261.821	4.87
262.195	4.81
262.57	4.81
262.944	4.8
263.319	4.78
263.693	4.79
264.067	4.81
264.442	4.81
264.816	4.82
265.19	4.87
265.564	4.9
265.938	4.88
266.313	4.9
266.687	4.87
267.061	4.88
267.435	4.86
267.809	4.82
268.183	4.81
268.556	4.78
268.93	4.78
269.304	4.73
269.678	4.66
270.051	4.65
270.425	4.63
270.799	4.63
271.172	4.63
271.546	4.62
271.919	4.62
272.293	4.62
272.666	4.63
273.04	4.59
273.413	4.52
273.787	4.53
274.16	4.51
274.533	4.56
274.906	4.53
275.279	4.56
275.653	4.57
276.026	4.52
276.399	4.53
276.772	4.52
277.145	4.56
277.518	4.58
277.891	4.6
278.263	4.59
278.636	4.63
279.009	4.65
279.382	4.64
279.755	4.61
280.127	4.68
280.5	4.67
280.872	4.66
281.245	4.72
281.617	4.73
281.99	4.75
282.362	4.71
282.735	4.7
283.107	4.66
283.479	4.66
283.852	4.66
284.224	4.68
284.596	4.69
284.968	4.71
285.34	4.75
285.713	4.78
286.085	4.78
286.457	4.79
286.829	4.76
287.201	4.79
287.572	4.81
287.944	4.79
288.316	4.8
288.688	4.86
289.06	4.86
289.431	4.86
289.803	4.88
290.175	4.92
290.546	4.98
290.918	5.04
291.289	5.08
291.661	5.16
292.032	5.18
292.403	5.21
292.775	5.22
293.146	5.23
293.517	5.25
293.889	5.31
294.26	5.36
294.631	5.42
295.002	5.45
295.373	5.52
295.744	5.55
296.115	5.58
296.486	5.6
296.857	5.64
297.228	5.7
297.599	5.72
297.97	5.74
298.34	5.75
298.711	5.81
299.082	5.83
299.452	5.84
299.823	5.9
300.194	5.94
300.564	5.99
300.935	6.06
301.305	6.09
301.676	6.1
302.046	6.13
302.416	6.17
302.787	6.24
303.157	6.26
303.527	6.34
303.897	6.42
304.267	6.49
304.637	6.53
305.008	6.6
305.378	6.65
305.748	6.72
306.117	6.77
306.487	6.8
306.857	6.85
307.227	6.91
307.597	6.96
307.967	7.01
308.336	7.07
308.706	7.13
309.076	7.19
309.445	7.25
309.815	7.31
310.184	7.39
310.554	7.43
310.923	7.47
311.293	7.5
311.662	7.54
312.031	7.58
312.401	7.64
312.77	7.67
313.139	7.75
313.508	7.79
313.877	7.84
314.246	7.9
314.616	7.96
314.985	8.02
315.353	8.09
315.722	8.14
316.091	8.19
316.46	8.25
316.829	8.32
317.198	8.4
317.567	8.44
317.935	8.48
318.304	8.56
318.672	8.64
319.041	8.7
319.41	8.75
319.778	8.83
320.147	8.93
320.515	8.98
320.883	9.03
321.252	9.09
321.62	9.13
321.988	9.16
322.357	9.24
322.725	9.3
323.093	9.34
323.461	9.39
323.829	9.44
324.197	9.45
324.565	9.49
324.933	9.52
325.301	9.59
325.669	9.63
326.037	9.65
326.405	9.68
326.772	9.68
327.14	9.72
327.508	9.76
327.875	9.77
328.243	9.8
328.61	9.86
328.978	9.92
329.346	9.97
329.713	10
330.08	10.03
330.448	10.07
330.815	10.12
331.182	10.13
331.55	10.16
331.917	10.21
332.284	10.24
332.651	10.28
333.018	10.3
333.385	10.34
333.752	10.36
334.119	10.38
334.486	10.45
334.853	10.49
335.22	10.51
335.587	10.53
335.954	10.55
336.32	10.53
336.687	10.54
337.054	10.57
337.42	10.6
337.787	10.62
338.153	10.65
338.52	10.67
338.886	10.71
339.253	10.72
339.619	10.74
339.986	10.77
340.352	10.78
340.718	10.84
341.084	10.86
341.451	10.88
341.817	10.91
342.183	10.92
342.549	10.94
342.915	10.96
343.281	10.99
343.647	11.04
344.013	11.1
344.379	11.12
344.745	11.15
345.11	11.18
345.476	11.21
345.842	11.24
346.208	11.26
346.573	11.28
346.939	11.32
347.304	11.34
347.67	11.36
348.035	11.36
348.401	11.35
348.766	11.36
349.132	11.37
349.497	11.38
349.862	11.39
350.228	11.41
350.593	11.43
350.958	11.45
351.323	11.43
351.688	11.44
352.053	11.44
352.418	11.44
352.783	11.42
353.148	11.42
353.513	11.39
353.878	11.39
354.243	11.36
354.608	11.36
354.972	11.34
355.337	11.34
355.702	11.34
356.066	11.31
356.431	11.28
356.795	11.28
357.16	11.28
357.524	11.25
357.889	11.21
358.253	11.18
358.618	11.15
358.982	11.15
359.346	11.09
359.71	11.05
360.075	11.02
360.439	11
360.803	10.96
361.167	10.93
361.531	10.91
361.895	10.88
362.259	10.86
362.623	10.83
362.987	10.8
363.351	10.77
363.714	10.75
364.078	10.72
364.442	10.68
364.806	10.63
365.169	10.61
365.533	10.56
365.896	10.53
366.26	10.48
366.623	10.41
366.987	10.38
367.35	10.33
367.714	10.28
368.077	10.22
368.44	10.18
368.803	10.13
369.167	10.09
369.53	10.04
369.893	9.99
370.256	9.95
370.619	9.88
370.982	9.83
371.345	9.77
371.708	9.72
372.071	9.66
372.434	9.6
372.797	9.54
373.159	9.48
373.522	9.41
373.885	9.36
374.247	9.3
374.61	9.23
374.973	9.16
375.335	9.09
375.698	9.03
376.06	8.97
376.423	8.9
376.785	8.82
377.147	8.76
377.51	8.7
377.872	8.63
378.234	8.57
378.596	8.5
378.958	8.43
379.321	8.38
379.683	8.32
380.045	8.26
380.407	8.2
380.769	8.15
381.13	8.1
381.492	8.05
381.854	7.99
382.216	7.94
382.578	7.89
382.939	7.86
383.301	7.81
383.663	7.78
384.024	7.74
384.386	7.7
384.747	7.66
385.109	7.61
385.47	7.57
385.832	7.55
386.193	7.52
386.554	7.47
386.916	7.43
387.277	7.4
387.638	7.37
387.999	7.33
388.36	7.29
388.721	7.26
389.082	7.21
389.443	7.18
389.804	7.14
390.165	7.11
390.526	7.07
390.887	7.02
391.248	6.98
391.609	6.94
391.969	6.9
392.33	6.87
392.691	6.83
393.051	6.79
393.412	6.75
393.772	6.71
394.133	6.67
394.493	6.63
394.854	6.59
395.214	6.55
395.574	6.51
395.935	6.47
396.295	6.42
396.655	6.38
397.015	6.33
397.376	6.29
397.736	6.25
398.096	6.21
398.456	6.18
398.816	6.14
399.176	6.09
399.535	6.06
399.895	6.03
400.255	6
400.615	5.96
400.975	5.94
401.334	5.9
401.694	5.87
402.054	5.84
402.413	5.81
402.773	5.79
403.132	5.77
403.492	5.74
403.851	5.72
404.211	5.7
404.57	5.69
404.929	5.66
405.288	5.65
405.648	5.64
406.007	5.62
406.366	5.61
406.725	5.6
407.084	5.58
407.443	5.56
407.802	5.55
408.161	5.54
408.52	5.53
408.879	5.52
409.238	5.52
409.596	5.51
409.955	5.49
410.314	5.48
410.673	5.47
411.031	5.48
411.39	5.47
411.748	5.46
412.107	5.45
412.465	5.45
412.824	5.43
413.182	5.42
413.54	5.41
413.899	5.4
414.257	5.39
414.615	5.38
414.974	5.38
415.332	5.37
415.69	5.37
416.048	5.36
416.406	5.4
416.764	5.42
417.122	5.47
417.48	5.51
417.838	5.55
418.195	5.61
418.553	5.65
418.911	5.72
419.269	5.77
419.626	5.81
419.984	5.87
420.342	5.91
420.699	5.95
421.057	6
421.414	6.04
421.772	6.08
422.129	6.11
422.486	6.13
422.844	6.14
423.201	6.12
423.558	6.09
423.915	6.03
424.273	5.97
424.63	5.89
424.987	5.79
425.344	5.71
425.701	5.63
426.058	5.56
426.415	5.47
426.772	5.39
427.128	5.33
427.485	5.24
427.842	5.18
428.199	5.11
428.555	5.04
428.912	4.96
429.269	4.9
429.625	4.84
429.982	4.8
430.338	4.76
430.695	4.75
431.051	4.75
431.407	4.78
431.764	4.79
432.12	4.82
432.476	4.86
432.832	4.88
433.189	4.9
433.545	4.91
433.901	4.92
434.257	4.93
434.613	4.92
434.969	4.95
435.325	4.97
435.681	4.99
436.036	5.02
436.392	5.06
436.748	5.12
437.104	5.16
437.459	5.21
437.815	5.26
438.171	5.32
438.526	5.35
438.882	5.39
439.237	5.45
439.593	5.46
439.948	5.49
440.304	5.51
440.659	5.53
441.014	5.56
441.369	5.6
441.725	5.64
442.08	5.7
442.435	5.75
442.79	5.81
443.145	5.87
443.5	5.9
443.855	5.94
444.21	5.94
444.565	5.94
444.92	5.95
445.275	5.93
445.629	5.92
445.984	5.91
446.339	5.87
446.693	5.82
447.048	5.8
447.403	5.77
447.757	5.74
448.112	5.71
448.466	5.65
448.82	5.59
449.175	5.52
449.529	5.44
449.883	5.34
450.238	5.24
450.592	5.14
450.946	5.06
451.3	4.97
451.654	4.9
452.008	4.84
452.362	4.76
452.716	4.71
453.07	4.65
453.424	4.61
453.778	4.59
454.132	4.58
454.486	4.58
454.839	4.59
455.193	4.62
455.547	4.67
455.9	4.74
456.254	4.8
456.607	4.87
456.961	4.95
457.314	5.03
457.668	5.1
458.021	5.16
458.375	5.21
458.728	5.23
459.081	5.25
459.434	5.26
459.787	5.27
460.141	5.26
460.494	5.24
460.847	5.22
461.2	5.22
461.553	5.21
461.906	5.21
462.259	5.2
462.611	5.17
462.964	5.14
463.317	5.1
463.67	5.06
464.022	5.02
464.375	4.97
464.728	4.92
465.08	4.88
465.433	4.85
465.785	4.81
466.138	4.82
466.49	4.81
466.843	4.83
467.195	4.85
467.547	4.88
467.899	4.94
468.252	4.99
468.604	5.02
468.956	5.05
469.308	5.09
469.66	5.11
470.012	5.12
470.364	5.14
470.716	5.16
471.068	5.17
471.42	5.18
471.772	5.19
472.123	5.2
472.475	5.21
472.827	5.22
473.178	5.23
473.53	5.24
473.882	5.24
474.233	5.25
474.585	5.26
474.936	5.26
475.288	5.26
475.639	5.26
475.99	5.26
476.342	5.26
476.693	5.26
477.044	5.27
477.395	5.29
477.746	5.33
478.097	5.39
478.448	5.52
478.8	5.72
479.15	5.96
479.501	6.24
479.852	6.55
480.203	6.89
480.554	7.25
480.905	7.61
481.255	7.98
481.606	8.34
481.957	8.72
482.307	9.09
482.658	9.43
483.009	9.76
483.359	10.06
483.709	10.35
484.06	10.63
484.41	10.9
484.761	11.14
485.111	11.37
485.461	11.54
485.811	11.65
486.162	11.69
486.512	11.68
486.862	11.61
487.212	11.51
487.562	11.37
487.912	11.2
488.262	11.02
488.612	10.83
488.961	10.63
489.311	10.4
489.661	10.17
490.011	9.95
490.36	9.72
490.71	9.48
491.06	9.24
491.409	9
491.759	8.77
492.108	8.54
492.458	8.31
492.807	8.11
493.157	7.92
493.506	7.74
493.855	7.56
494.204	7.4
494.554	7.25
494.903	7.1
495.252	6.96
495.601	6.82
495.95	6.68
496.299	6.54
496.648	6.41
496.997	6.3
497.346	6.2
497.695	6.13
498.043	6.09
498.392	6.07
498.741	6.07
499.09	6.09
499.438	6.12
499.787	6.15
500.135	6.19
500.484	6.24
500.832	6.3
501.181	6.35
501.529	6.42
501.878	6.48
502.226	6.56
502.574	6.66
502.923	6.76
503.271	6.88
503.619	7.02
503.967	7.17
504.315	7.34
504.663	7.52
505.011	7.72
505.359	7.94
505.707	8.15
506.055	8.37
506.403	8.58
506.751	8.81
507.098	9.04
507.446	9.28
507.794	9.51
508.141	9.75
508.489	9.98
508.837	10.22
509.184	10.46
509.531	10.7
509.879	10.94
510.226	11.19
510.574	11.43
510.921	11.68
511.268	11.92
511.616	12.16
511.963	12.43
512.31	12.72
512.657	13.02
513.004	13.34
513.351	13.69
513.698	14.07
514.045	14.48
514.392	14.9
514.739	15.35
515.086	15.83
515.432	16.33
515.779	16.83
516.126	17.33
516.473	17.81
516.819	18.27
517.166	18.71
517.512	19.11
517.859	19.48
518.205	19.83
518.552	20.16
518.898	20.47
519.245	20.76
519.591	21.05
519.937	21.36
520.283	21.71
520.629	22.1
520.976	22.51
521.322	22.95
521.668	23.42
522.014	23.93
522.36	24.48
522.706	25.14
523.052	25.99
523.398	27.07
523.743	28.36
524.089	29.81
524.435	31.38
524.781	33.06
525.126	34.81
525.472	36.63
525.817	38.46
526.163	40.29
526.509	42.08
526.854	43.76
527.199	45.28
527.545	46.59
527.89	47.76
528.235	48.87
528.581	49.92
528.926	50.9
529.271	51.81
529.616	52.63
529.961	53.29
530.306	53.74
530.651	53.94
530.996	53.93
531.341	53.79
531.686	53.5
532.031	53.04
532.376	52.44
532.721	51.72
533.065	50.93
533.41	50.12
533.755	49.3
534.099	48.55
534.444	47.9
534.788	47.37
535.133	46.91
535.477	46.47
535.822	46.14
536.166	45.95
536.51	45.9
536.855	46.01
537.199	46.25
537.543	46.59
537.887	47.03
538.231	47.54
538.576	48.07
538.92	48.66
539.264	49.29
539.608	49.95
539.951	50.54
540.295	51.03
540.639	51.44
540.983	51.79
541.327	52.12
541.671	52.44
542.014	52.71
542.358	52.94
542.701	53.12
543.045	53.13
543.389	52.96
543.732	52.61
544.075	52.04
544.419	51.33
544.762	50.44
545.105	49.4
545.449	48.39
545.792	47.35
546.135	46.41
546.478	45.59
546.821	44.83
547.165	44.18
547.508	43.69
547.851	43.34
548.194	43.07
548.536	42.83
548.879	42.64
549.222	42.54
549.565	42.49
549.908	42.47
550.25	42.53
550.593	42.65
550.936	42.83
551.278	43.06
551.621	43.37
551.963	43.79
552.306	44.31
552.648	44.74
552.991	45.18
553.333	45.46
553.675	45.61
554.017	45.76
554.36	45.91
554.702	46.05
555.044	46.16
555.386	46.31
555.728	46.46
556.07	46.59
556.412	46.73
556.754	46.86
557.096	47
557.438	47.12
557.78	47.26
558.121	47.38
558.463	47.51
558.805	47.64
559.147	47.78
559.488	47.92
559.83	48.06
560.171	48.2
560.513	48.35
560.854	48.5
561.196	48.65
561.537	48.82
561.878	48.96
562.22	49.12
562.561	49.28
562.902	49.41
563.243	49.56
563.584	49.69
563.925	49.82
564.266	49.95
564.607	50.08
564.948	50.2
565.289	50.32
565.63	50.44
565.971	50.56
566.312	50.66
566.653	50.77
566.993	50.89
567.334	50.97
567.675	51.1
568.015	51.22
568.356	51.33
568.696	51.44
569.037	51.55
569.377	51.65
569.718	51.74
570.058	51.85
570.398	51.96
570.739	52.07
571.079	52.16
571.419	52.26
571.759	52.34
572.099	52.43
572.439	52.51
572.779	52.59
573.119	52.67
573.459	52.74
573.799	52.83
574.139	52.89
574.479	52.95
574.819	52.98
575.158	53.01
575.498	53.04
575.838	53.06
576.177	53.1
576.517	53.13
576.856	53.16
577.196	53.17
577.535	53.17
577.875	53.19
578.214	53.2
578.553	53.23
578.893	53.25
579.232	53.26
579.571	53.28
579.91	53.29
580.25	53.31
580.589	53.36
580.928	53.37
581.267	53.42
581.606	53.45
581.945	53.49
582.283	53.55
582.622	53.61
582.961	53.68
583.3	53.69
583.639	53.75
583.977	53.79
584.316	53.84
584.654	53.92
584.993	53.99
585.332	54.09
585.67	54.15
586.008	54.24
586.347	54.33
586.685	54.39
587.024	54.48
587.362	54.54
587.7	54.58
588.038	54.65
588.376	54.71
588.715	54.79
589.053	54.87
589.391	54.92
589.729	54.99
590.067	55.03
590.404	55.11
590.742	55.17
591.08	55.24
591.418	55.31
591.756	55.35
592.093	55.41
592.431	55.48
592.769	55.55
593.106	55.61
593.444	55.68
593.781	55.74
594.119	55.81
594.456	55.89
594.793	55.96
595.131	56.02
595.468	56.06
595.805	56.11
596.143	56.15
596.48	56.2
596.817	56.23
597.154	56.27
597.491	56.3
597.828	56.35
598.165	56.38
598.502	56.41
598.839	56.47
599.176	56.5
599.512	56.53
599.849	56.56
600.186	56.62
600.523	56.67
600.859	56.75
601.196	56.81
601.532	56.85
601.869	56.9
602.205	56.94
602.542	57.01
602.878	57.07
603.215	57.12
603.551	57.17
603.887	57.22
604.223	57.27
604.56	57.32
604.896	57.38
605.232	57.43
605.568	57.47
605.904	57.5
606.24	57.52
606.576	57.55
606.912	57.56
607.248	57.58
607.583	57.58
607.919	57.57
608.255	57.57
608.591	57.57
608.926	57.57
609.262	57.59
609.597	57.58
609.933	57.57
610.268	57.56
610.604	57.55
610.939	57.55
611.275	57.54
611.61	57.55
611.945	57.52
612.281	57.51
612.616	57.52
612.951	57.53
613.286	57.53
613.621	57.51
613.956	57.52
614.291	57.5
614.626	57.5
614.961	57.52
615.296	57.52
615.631	57.54
615.966	57.55
616.3	57.57
616.635	57.56
616.97	57.57
617.304	57.59
617.639	57.62
617.973	57.64
618.308	57.68
618.642	57.68
618.977	57.71
619.311	57.73
619.646	57.72
619.98	57.74
620.314	57.77
620.648	57.82
620.983	57.88
621.317	57.92
621.651	57.96
621.985	57.99
622.319	58
622.653	58.04
622.987	58.08
623.321	58.1
623.655	58.15
623.988	58.22
624.322	58.25
624.656	58.27
624.99	58.32
625.323	58.36
625.657	58.37
625.99	58.4
626.324	58.43
626.657	58.46
626.991	58.49
627.324	58.51
627.658	58.53
627.991	58.52
628.324	58.52
628.657	58.53
628.991	58.56
629.324	58.59
629.657	58.59
629.99	58.6
630.323	58.62
630.656	58.63
630.989	58.63
631.322	58.63
631.655	58.67
631.987	58.65
632.32	58.67
632.653	58.71
632.986	58.74
633.318	58.75
633.651	58.77
633.984	58.79
634.316	58.83
634.649	58.83
634.981	58.85
635.313	58.89
635.646	58.89
635.978	58.89
636.31	58.91
636.643	58.94
636.975	58.97
637.307	58.97
637.639	59.01
637.971	59.04
638.303	59.06
638.635	59.07
638.967	59.1
639.299	59.09
639.631	59.11
639.963	59.12
640.295	59.11
640.626	59.15
640.958	59.16
641.29	59.17
641.621	59.19
641.953	59.21
642.285	59.21
642.616	59.24
642.948	59.24
643.279	59.26
643.61	59.27
643.942	59.28
644.273	59.3
644.604	59.28
644.936	59.27
645.267	59.29
645.598	59.31
645.929	59.33
646.26	59.36
646.591	59.38
646.922	59.39
647.253	59.45
647.584	59.45
647.915	59.47
648.245	59.51
648.576	59.55
648.907	59.55
649.238	59.55
649.568	59.55
649.899	59.6
650.229	59.61
650.56	59.62
650.89	59.66
651.221	59.68
651.551	59.7
651.882	59.77
652.212	59.79
652.542	59.77
652.872	59.8
653.203	59.82
653.533	59.85
653.863	59.87
654.193	59.87
654.523	59.9
654.853	59.9
655.183	59.88
655.513	59.88
655.843	59.96
656.172	59.99
656.502	60.01
656.832	60.04
657.162	60.08
657.491	60.13
657.821	60.11
658.15	60.12
658.48	60.13
658.809	60.13
659.139	60.15
659.468	60.19
659.798	60.21
660.127	60.21
660.456	60.21
660.785	60.25
661.115	60.26
661.444	60.24
661.773	60.25
662.102	60.26
662.431	60.25
662.76	60.25
663.089	60.22
663.418	60.26
663.747	60.24
664.076	60.22
664.404	60.22
664.733	60.26
665.062	60.28
665.39	60.3
665.719	60.31
666.048	60.31
666.376	60.33
666.705	60.3
