Data from UWBM55954_Reflection_00001.txt Node
Date: Sun May 02 13:50:20 EDT 2021
User: vgr7
Spectrometer: USB2G7710
Scans to average: 10
Trigger mode: 4
Integration Time (sec): 1.000000E-1
Electric dark correction enabled: true
Boxcar width: 20
XAxis mode: Wavelengths
Number of Pixels in Spectrum: 2048
>>>>>Begin Spectral Data<<<<<
177.721	226.84
178.105	295.81
178.488	172.06
178.871	176.92
179.254	147.08
179.636	85.94
180.019	61.89
180.402	56.81
180.785	49.62
181.168	40.03
181.55	34.76
181.933	36.82
182.316	33.46
182.698	29.48
183.081	23.06
183.463	22.94
183.846	19.25
184.228	23.42
184.611	19.74
184.993	17.48
185.376	14.82
185.758	19.17
186.14	21.22
186.522	20.78
186.904	19.65
187.287	17.94
187.669	15.52
188.051	15.5
188.433	14.97
188.815	10.38
189.197	11.05
189.579	9.22
189.961	6.98
190.342	7.09
190.724	9.15
191.106	9.85
191.488	9.39
191.869	7.79
192.251	6.28
192.633	5.77
193.014	2.05
193.396	-0.67
193.777	2.79
194.159	5.42
194.54	4.14
194.922	3.15
195.303	5.09
195.684	3.81
196.065	3.26
196.447	4.72
196.828	3.99
197.209	3.67
197.59	0.65
197.971	0.4
198.352	2.44
198.733	5.84
199.114	5.4
199.495	7.82
199.876	5.51
200.257	6.13
200.638	5.48
201.018	7.87
201.399	6.75
201.78	5.3
202.16	4.46
202.541	2.93
202.922	4.54
203.302	7.32
203.683	7.84
204.063	8.7
204.444	8.77
204.824	8.39
205.204	6.68
205.585	8.69
205.965	9.04
206.345	7.53
206.725	9.15
207.106	8
207.486	9.48
207.866	10.1
208.246	8.39
208.626	8.87
209.006	8.65
209.386	6.08
209.766	3.69
210.145	3.2
210.525	4.07
210.905	4.27
211.285	4.12
211.664	4.51
212.044	1.83
212.424	1.51
212.803	0.8
213.183	0.99
213.562	2.27
213.942	1.02
214.321	-0.69
214.701	-0.86
215.08	-1.64
215.459	-0.93
215.838	-2.01
216.218	-2.11
216.597	-3.05
216.976	-1.24
217.355	-1
217.734	-0.19
218.113	0.27
218.492	-0.76
218.871	-1.36
219.25	-1.07
219.629	-1.84
220.008	-1.48
220.387	-2.63
220.766	-0.58
221.144	-0.85
221.523	-0.63
221.902	0.98
222.28	-0.23
222.659	-0.22
223.037	-1.05
223.416	-0.16
223.794	-0.47
224.173	0.02
224.551	0.09
224.929	1.14
225.308	1.22
225.686	1.46
226.064	1.23
226.442	1.18
226.821	1.63
227.199	2.03
227.577	2.61
227.955	3.25
228.333	3.14
228.711	2.82
229.089	2.23
229.467	2.28
229.845	2.42
230.222	2.39
230.6	2.35
230.978	2.52
231.356	2.99
231.733	3.37
232.111	3.36
232.488	2.85
232.866	2.89
233.243	2.89
233.621	3.09
233.998	3.16
234.376	3.16
234.753	2.99
235.13	3.14
235.508	3.38
235.885	3.45
236.262	3.41
236.639	3.46
237.016	3.5
237.393	3.45
237.77	3.57
238.147	3.63
238.524	3.75
238.901	3.7
239.278	3.91
239.655	3.98
240.032	4.02
240.409	4.07
240.785	4.16
241.162	4.23
241.539	4.23
241.915	4.26
242.292	4.29
242.668	4.32
243.045	4.29
243.421	4.25
243.798	4.32
244.174	4.38
244.551	4.41
244.927	4.42
245.303	4.44
245.679	4.47
246.056	4.41
246.432	4.41
246.808	4.41
247.184	4.4
247.56	4.42
247.936	4.44
248.312	4.43
248.688	4.4
249.064	4.4
249.44	4.41
249.815	4.38
250.191	4.36
250.567	4.39
250.943	4.35
251.318	4.36
251.694	4.37
252.069	4.35
252.445	4.35
252.82	4.35
253.196	4.34
253.571	4.33
253.947	4.32
254.322	4.3
254.697	4.28
255.073	4.27
255.448	4.28
255.823	4.24
256.198	4.21
256.573	4.18
256.948	4.17
257.323	4.14
257.698	4.1
258.073	4.06
258.448	4.06
258.823	4.06
259.198	4.03
259.573	4.01
259.948	4.01
260.322	4
260.697	3.97
261.072	3.93
261.446	3.96
261.821	3.95
262.195	3.92
262.57	3.9
262.944	3.88
263.319	3.89
263.693	3.88
264.067	3.9
264.442	3.88
264.816	3.86
265.19	3.87
265.564	3.89
265.938	3.87
266.313	3.88
266.687	3.89
267.061	3.89
267.435	3.89
267.809	3.88
268.183	3.87
268.556	3.86
268.93	3.86
269.304	3.85
269.678	3.86
270.051	3.83
270.425	3.83
270.799	3.8
271.172	3.81
271.546	3.82
271.919	3.82
272.293	3.82
272.666	3.84
273.04	3.86
273.413	3.89
273.787	3.9
274.16	3.89
274.533	3.9
274.906	3.9
275.279	3.91
275.653	3.91
276.026	3.93
276.399	3.95
276.772	3.95
277.145	3.94
277.518	3.96
277.891	3.98
278.263	3.98
278.636	3.96
279.009	3.96
279.382	3.97
279.755	3.97
280.127	3.98
280.5	4
280.872	3.99
281.245	3.99
281.617	3.99
281.99	3.98
282.362	3.97
282.735	3.98
283.107	3.98
283.479	3.95
283.852	3.97
284.224	3.96
284.596	3.96
284.968	3.95
285.34	3.96
285.713	3.96
286.085	3.97
286.457	3.98
286.829	3.99
287.201	3.99
287.572	3.98
287.944	3.98
288.316	3.96
288.688	3.95
289.06	3.95
289.431	3.94
289.803	3.95
290.175	3.95
290.546	3.96
290.918	3.97
291.289	3.97
291.661	3.95
292.032	3.95
292.403	3.95
292.775	3.94
293.146	3.95
293.517	3.96
293.889	3.97
294.26	3.98
294.631	3.98
295.002	4
295.373	4.01
295.744	4
296.115	4
296.486	4.02
296.857	4.03
297.228	4.03
297.599	4.04
297.97	4.05
298.34	4.05
298.711	4.06
299.082	4.06
299.452	4.09
299.823	4.09
300.194	4.1
300.564	4.1
300.935	4.1
301.305	4.09
301.676	4.08
302.046	4.08
302.416	4.08
302.787	4.07
303.157	4.08
303.527	4.09
303.897	4.08
304.267	4.08
304.637	4.08
305.008	4.08
305.378	4.07
305.748	4.06
306.117	4.05
306.487	4.06
306.857	4.08
307.227	4.1
307.597	4.1
307.967	4.11
308.336	4.11
308.706	4.09
309.076	4.08
309.445	4.09
309.815	4.08
310.184	4.08
310.554	4.06
310.923	4.06
311.293	4.06
311.662	4.05
312.031	4.04
312.401	4.05
312.77	4.04
313.139	4.03
313.508	4.04
313.877	4.04
314.246	4.04
314.616	4.01
314.985	4.01
315.353	4.01
315.722	3.99
316.091	4
316.46	4
316.829	4.01
317.198	4.01
317.567	4.02
317.935	4.04
318.304	4.02
318.672	4.01
319.041	4.04
319.41	4.03
319.778	4.03
320.147	4.03
320.515	4.03
320.883	4.02
321.252	4.01
321.62	4
321.988	3.98
322.357	3.97
322.725	3.96
323.093	3.95
323.461	3.94
323.829	3.95
324.197	3.97
324.565	3.96
324.933	3.96
325.301	3.95
325.669	3.97
326.037	3.97
326.405	3.96
326.772	3.95
327.14	3.94
327.508	3.93
327.875	3.92
328.243	3.91
328.61	3.9
328.978	3.89
329.346	3.88
329.713	3.89
330.08	3.9
330.448	3.89
330.815	3.89
331.182	3.87
331.55	3.88
331.917	3.87
332.284	3.84
332.651	3.82
333.018	3.83
333.385	3.84
333.752	3.83
334.119	3.81
334.486	3.81
334.853	3.81
335.22	3.81
335.587	3.81
335.954	3.81
336.32	3.82
336.687	3.8
337.054	3.8
337.42	3.8
337.787	3.8
338.153	3.8
338.52	3.78
338.886	3.77
339.253	3.76
339.619	3.76
339.986	3.76
340.352	3.76
340.718	3.75
341.084	3.75
341.451	3.74
341.817	3.75
342.183	3.77
342.549	3.77
342.915	3.77
343.281	3.78
343.647	3.77
344.013	3.77
344.379	3.78
344.745	3.77
345.11	3.77
345.476	3.78
345.842	3.78
346.208	3.79
346.573	3.78
346.939	3.78
347.304	3.8
347.67	3.8
348.035	3.8
348.401	3.8
348.766	3.81
349.132	3.82
349.497	3.82
349.862	3.81
350.228	3.81
350.593	3.82
350.958	3.82
351.323	3.83
351.688	3.84
352.053	3.86
352.418	3.85
352.783	3.85
353.148	3.85
353.513	3.87
353.878	3.86
354.243	3.86
354.608	3.86
354.972	3.87
355.337	3.87
355.702	3.87
356.066	3.87
356.431	3.88
356.795	3.87
357.16	3.86
357.524	3.87
357.889	3.86
358.253	3.86
358.618	3.86
358.982	3.86
359.346	3.86
359.71	3.86
360.075	3.87
360.439	3.87
360.803	3.86
361.167	3.87
361.531	3.86
361.895	3.87
362.259	3.86
362.623	3.85
362.987	3.85
363.351	3.85
363.714	3.85
364.078	3.84
364.442	3.85
364.806	3.85
365.169	3.84
365.533	3.84
365.896	3.84
366.26	3.84
366.623	3.83
366.987	3.82
367.35	3.82
367.714	3.82
368.077	3.83
368.44	3.83
368.803	3.83
369.167	3.82
369.53	3.82
369.893	3.81
370.256	3.81
370.619	3.81
370.982	3.81
371.345	3.81
371.708	3.82
372.071	3.82
372.434	3.82
372.797	3.82
373.159	3.83
373.522	3.84
373.885	3.84
374.247	3.83
374.61	3.83
374.973	3.83
375.335	3.83
375.698	3.83
376.06	3.83
376.423	3.83
376.785	3.83
377.147	3.83
377.51	3.83
377.872	3.83
378.234	3.83
378.596	3.83
378.958	3.83
379.321	3.83
379.683	3.83
380.045	3.83
380.407	3.83
380.769	3.83
381.13	3.82
381.492	3.82
381.854	3.83
382.216	3.82
382.578	3.82
382.939	3.82
383.301	3.82
383.663	3.83
384.024	3.83
384.386	3.83
384.747	3.83
385.109	3.83
385.47	3.82
385.832	3.82
386.193	3.81
386.554	3.81
386.916	3.81
387.277	3.8
387.638	3.79
387.999	3.8
388.36	3.79
388.721	3.79
389.082	3.79
389.443	3.79
389.804	3.78
390.165	3.78
390.526	3.78
390.887	3.78
391.248	3.78
391.609	3.78
391.969	3.78
392.33	3.78
392.691	3.78
393.051	3.78
393.412	3.78
393.772	3.78
394.133	3.78
394.493	3.78
394.854	3.77
395.214	3.77
395.574	3.77
395.935	3.78
396.295	3.77
396.655	3.77
397.015	3.77
397.376	3.77
397.736	3.76
398.096	3.76
398.456	3.76
398.816	3.76
399.176	3.76
399.535	3.76
399.895	3.76
400.255	3.77
400.615	3.77
400.975	3.77
401.334	3.77
401.694	3.77
402.054	3.78
402.413	3.78
402.773	3.78
403.132	3.78
403.492	3.78
403.851	3.78
404.211	3.78
404.57	3.79
404.929	3.79
405.288	3.79
405.648	3.79
406.007	3.79
406.366	3.79
406.725	3.79
407.084	3.79
407.443	3.79
407.802	3.79
408.161	3.79
408.52	3.79
408.879	3.79
409.238	3.79
409.596	3.8
409.955	3.8
410.314	3.8
410.673	3.8
411.031	3.81
411.39	3.82
411.748	3.82
412.107	3.83
412.465	3.85
412.824	3.87
413.182	3.89
413.54	3.92
413.899	3.94
414.257	3.97
414.615	4.01
414.974	4.04
415.332	4.07
415.69	4.11
416.048	4.14
416.406	4.17
416.764	4.2
417.122	4.23
417.48	4.26
417.838	4.29
418.195	4.32
418.553	4.34
418.911	4.35
419.269	4.36
419.626	4.36
419.984	4.35
420.342	4.34
420.699	4.32
421.057	4.3
421.414	4.29
421.772	4.28
422.129	4.27
422.486	4.26
422.844	4.26
423.201	4.26
423.558	4.26
423.915	4.26
424.273	4.26
424.63	4.26
424.987	4.25
425.344	4.26
425.701	4.26
426.058	4.25
426.415	4.26
426.772	4.26
427.128	4.25
427.485	4.24
427.842	4.23
428.199	4.21
428.555	4.2
428.912	4.18
429.269	4.15
429.625	4.13
429.982	4.1
430.338	4.07
430.695	4.05
431.051	4.02
431.407	4
431.764	3.98
432.12	3.97
432.476	3.95
432.832	3.94
433.189	3.95
433.545	3.95
433.901	3.96
434.257	3.98
434.613	4.01
434.969	4.03
435.325	4.06
435.681	4.1
436.036	4.12
436.392	4.14
436.748	4.15
437.104	4.16
437.459	4.18
437.815	4.2
438.171	4.22
438.526	4.25
438.882	4.28
439.237	4.32
439.593	4.35
439.948	4.38
440.304	4.42
440.659	4.44
441.014	4.46
441.369	4.49
441.725	4.5
442.08	4.52
442.435	4.54
442.79	4.54
443.145	4.54
443.5	4.55
443.855	4.55
444.21	4.55
444.565	4.54
444.92	4.53
445.275	4.53
445.629	4.52
445.984	4.51
446.339	4.5
446.693	4.49
447.048	4.47
447.403	4.46
447.757	4.43
448.112	4.42
448.466	4.39
448.82	4.37
449.175	4.35
449.529	4.33
449.883	4.31
450.238	4.29
450.592	4.29
450.946	4.28
451.3	4.27
451.654	4.28
452.008	4.28
452.362	4.29
452.716	4.29
453.07	4.29
453.424	4.28
453.778	4.27
454.132	4.26
454.486	4.25
454.839	4.23
455.193	4.21
455.547	4.2
455.9	4.17
456.254	4.16
456.607	4.13
456.961	4.1
457.314	4.08
457.668	4.07
458.021	4.06
458.375	4.06
458.728	4.06
459.081	4.06
459.434	4.07
459.787	4.08
460.141	4.09
460.494	4.1
460.847	4.1
461.2	4.11
461.553	4.12
461.906	4.12
462.259	4.12
462.611	4.12
462.964	4.12
463.317	4.13
463.67	4.13
464.022	4.14
464.375	4.14
464.728	4.15
465.08	4.15
465.433	4.15
465.785	4.15
466.138	4.13
466.49	4.11
466.843	4.09
467.195	4.07
467.547	4.05
467.899	4.03
468.252	4
468.604	3.98
468.956	3.95
469.308	3.94
469.66	3.94
470.012	3.93
470.364	3.93
470.716	3.93
471.068	3.95
471.42	3.97
471.772	3.99
472.123	4
472.475	4.01
472.827	4.02
473.178	4.03
473.53	4.03
473.882	4.05
474.233	4.07
474.585	4.11
474.936	4.17
475.288	4.25
475.639	4.36
475.99	4.49
476.342	4.64
476.693	4.8
477.044	4.96
477.395	5.13
477.746	5.3
478.097	5.47
478.448	5.64
478.8	5.81
479.15	5.97
479.501	6.11
479.852	6.24
480.203	6.37
480.554	6.49
480.905	6.61
481.255	6.72
481.606	6.83
481.957	6.93
482.307	7.02
482.658	7.11
483.009	7.2
483.359	7.29
483.709	7.37
484.06	7.44
484.41	7.52
484.761	7.6
485.111	7.67
485.461	7.74
485.811	7.8
486.162	7.86
486.512	7.91
486.862	7.95
487.212	7.98
487.562	7.99
487.912	8
488.262	8.01
488.612	8
488.961	7.98
489.311	7.94
489.661	7.87
490.011	7.79
490.36	7.68
490.71	7.56
491.06	7.43
491.409	7.29
491.759	7.14
492.108	6.99
492.458	6.83
492.807	6.67
493.157	6.51
493.506	6.35
493.855	6.2
494.204	6.07
494.554	5.93
494.903	5.81
495.252	5.69
495.601	5.57
495.95	5.46
496.299	5.36
496.648	5.26
496.997	5.16
497.346	5.07
497.695	4.98
498.043	4.9
498.392	4.82
498.741	4.74
499.09	4.66
499.438	4.58
499.787	4.52
500.135	4.45
500.484	4.39
500.832	4.34
501.181	4.31
501.529	4.28
501.878	4.27
502.226	4.26
502.574	4.26
502.923	4.26
503.271	4.26
503.619	4.26
503.967	4.25
504.315	4.25
504.663	4.25
505.011	4.24
505.359	4.24
505.707	4.23
506.055	4.23
506.403	4.23
506.751	4.23
507.098	4.24
507.446	4.24
507.794	4.25
508.141	4.26
508.489	4.27
508.837	4.29
509.184	4.3
509.531	4.31
509.879	4.32
510.226	4.34
510.574	4.36
510.921	4.37
511.268	4.39
511.616	4.41
511.963	4.43
512.31	4.45
512.657	4.47
513.004	4.49
513.351	4.51
513.698	4.53
514.045	4.53
514.392	4.54
514.739	4.54
515.086	4.54
515.432	4.53
515.779	4.52
516.126	4.52
516.473	4.52
516.819	4.52
517.166	4.53
517.512	4.54
517.859	4.55
518.205	4.58
518.552	4.6
518.898	4.64
519.245	4.68
519.591	4.74
519.937	4.81
520.283	4.9
520.629	5
520.976	5.11
521.322	5.23
521.668	5.35
522.014	5.48
522.36	5.6
522.706	5.72
523.052	5.83
523.398	5.93
523.743	6.03
524.089	6.11
524.435	6.18
524.781	6.24
525.126	6.3
525.472	6.36
525.817	6.41
526.163	6.46
526.509	6.51
526.854	6.55
527.199	6.6
527.545	6.65
527.89	6.69
528.235	6.74
528.581	6.79
528.926	6.83
529.271	6.87
529.616	6.9
529.961	6.94
530.306	6.97
530.651	6.98
530.996	7
531.341	7.01
531.686	7.01
532.031	7.01
532.376	7.01
532.721	7.01
533.065	7.02
533.41	7.02
533.755	7.01
534.099	7
534.444	6.97
534.788	6.94
535.133	6.9
535.477	6.85
535.822	6.8
536.166	6.74
536.51	6.67
536.855	6.6
537.199	6.52
537.543	6.44
537.887	6.37
538.231	6.31
538.576	6.25
538.92	6.19
539.264	6.14
539.608	6.08
539.951	6.02
540.295	5.95
540.639	5.89
540.983	5.82
541.327	5.76
541.671	5.69
542.014	5.63
542.358	5.57
542.701	5.53
543.045	5.5
543.389	5.47
543.732	5.45
544.075	5.43
544.419	5.41
544.762	5.4
545.105	5.39
545.449	5.37
545.792	5.36
546.135	5.36
546.478	5.35
546.821	5.32
547.165	5.29
547.508	5.25
547.851	5.21
548.194	5.15
548.536	5.09
548.879	5.02
549.222	4.95
549.565	4.88
549.908	4.81
550.25	4.74
550.593	4.68
550.936	4.63
551.278	4.6
551.621	4.56
551.963	4.53
552.306	4.51
552.648	4.49
552.991	4.47
553.333	4.46
553.675	4.45
554.017	4.44
554.36	4.44
554.702	4.45
555.044	4.45
555.386	4.47
555.728	4.48
556.07	4.49
556.412	4.51
556.754	4.51
557.096	4.51
557.438	4.51
557.78	4.52
558.121	4.52
558.463	4.52
558.805	4.52
559.147	4.53
559.488	4.53
559.83	4.53
560.171	4.53
560.513	4.53
560.854	4.53
561.196	4.53
561.537	4.53
561.878	4.54
562.22	4.54
562.561	4.54
562.902	4.54
563.243	4.54
563.584	4.54
563.925	4.54
564.266	4.54
564.607	4.55
564.948	4.55
565.289	4.55
565.63	4.56
565.971	4.56
566.312	4.57
566.653	4.57
566.993	4.57
567.334	4.58
567.675	4.58
568.015	4.58
568.356	4.59
568.696	4.59
569.037	4.59
569.377	4.59
569.718	4.6
570.058	4.6
570.398	4.6
570.739	4.6
571.079	4.6
571.419	4.6
571.759	4.6
572.099	4.6
572.439	4.6
572.779	4.6
573.119	4.59
573.459	4.59
573.799	4.59
574.139	4.59
574.479	4.59
574.819	4.59
575.158	4.59
575.498	4.59
575.838	4.58
576.177	4.58
576.517	4.58
576.856	4.58
577.196	4.58
577.535	4.58
577.875	4.57
578.214	4.58
578.553	4.57
578.893	4.57
579.232	4.57
579.571	4.57
579.91	4.56
580.25	4.56
580.589	4.56
580.928	4.55
581.267	4.55
581.606	4.55
581.945	4.54
582.283	4.54
582.622	4.54
582.961	4.53
583.3	4.53
583.639	4.53
583.977	4.53
584.316	4.53
584.654	4.54
584.993	4.54
585.332	4.54
585.67	4.54
586.008	4.54
586.347	4.54
586.685	4.54
587.024	4.54
587.362	4.54
587.7	4.54
588.038	4.55
588.376	4.55
588.715	4.55
589.053	4.56
589.391	4.56
589.729	4.57
590.067	4.57
590.404	4.58
590.742	4.58
591.08	4.58
591.418	4.59
591.756	4.6
592.093	4.6
592.431	4.6
592.769	4.61
593.106	4.62
593.444	4.61
593.781	4.61
594.119	4.61
594.456	4.61
594.793	4.61
595.131	4.61
595.468	4.61
595.805	4.61
596.143	4.62
596.48	4.62
596.817	4.62
597.154	4.62
597.491	4.63
597.828	4.63
598.165	4.63
598.502	4.63
598.839	4.63
599.176	4.64
599.512	4.64
599.849	4.64
600.186	4.64
600.523	4.64
600.859	4.64
601.196	4.64
601.532	4.64
601.869	4.64
602.205	4.65
602.542	4.65
602.878	4.65
603.215	4.65
603.551	4.65
603.887	4.65
604.223	4.65
604.56	4.65
604.896	4.65
605.232	4.65
605.568	4.65
605.904	4.64
606.24	4.64
606.576	4.64
606.912	4.64
607.248	4.63
607.583	4.64
607.919	4.64
608.255	4.64
608.591	4.65
608.926	4.65
609.262	4.65
609.597	4.64
609.933	4.65
610.268	4.65
610.604	4.64
610.939	4.64
611.275	4.63
611.61	4.63
611.945	4.63
612.281	4.63
612.616	4.63
612.951	4.63
613.286	4.62
613.621	4.63
613.956	4.63
614.291	4.64
614.626	4.64
614.961	4.64
615.296	4.64
615.631	4.64
615.966	4.64
616.3	4.64
616.635	4.64
616.97	4.64
617.304	4.64
617.639	4.64
617.973	4.64
618.308	4.63
618.642	4.63
618.977	4.63
619.311	4.63
619.646	4.64
619.98	4.64
620.314	4.64
620.648	4.64
620.983	4.65
621.317	4.66
621.651	4.66
621.985	4.66
622.319	4.67
622.653	4.67
622.987	4.67
623.321	4.68
623.655	4.69
623.988	4.69
624.322	4.7
624.656	4.7
624.99	4.71
625.323	4.71
625.657	4.7
625.99	4.71
626.324	4.7
626.657	4.7
626.991	4.7
627.324	4.7
627.658	4.7
627.991	4.7
628.324	4.7
628.657	4.71
628.991	4.71
629.324	4.71
629.657	4.71
629.99	4.72
630.323	4.72
630.656	4.72
630.989	4.72
631.322	4.72
631.655	4.73
631.987	4.73
632.32	4.74
632.653	4.74
632.986	4.74
633.318	4.74
633.651	4.74
633.984	4.74
634.316	4.75
634.649	4.75
634.981	4.75
635.313	4.74
635.646	4.74
635.978	4.74
636.31	4.74
636.643	4.74
636.975	4.75
637.307	4.74
637.639	4.75
637.971	4.74
638.303	4.74
638.635	4.74
638.967	4.74
639.299	4.75
639.631	4.75
639.963	4.77
640.295	4.78
640.626	4.78
640.958	4.78
641.29	4.78
641.621	4.78
641.953	4.79
642.285	4.79
642.616	4.8
642.948	4.79
643.279	4.8
643.61	4.81
643.942	4.82
644.273	4.82
644.604	4.82
644.936	4.82
645.267	4.82
645.598	4.82
645.929	4.82
646.26	4.82
646.591	4.82
646.922	4.82
647.253	4.83
647.584	4.83
647.915	4.82
648.245	4.82
648.576	4.83
648.907	4.83
649.238	4.83
649.568	4.83
649.899	4.83
650.229	4.84
650.56	4.84
650.89	4.84
651.221	4.85
651.551	4.85
651.882	4.86
652.212	4.86
652.542	4.87
652.872	4.86
653.203	4.87
653.533	4.87
653.863	4.87
654.193	4.87
654.523	4.88
654.853	4.88
655.183	4.88
655.513	4.88
655.843	4.88
656.172	4.87
656.502	4.88
656.832	4.87
657.162	4.86
657.491	4.85
657.821	4.85
658.15	4.85
658.48	4.86
658.809	4.87
659.139	4.87
659.468	4.87
659.798	4.88
660.127	4.88
660.456	4.89
660.785	4.89
661.115	4.89
661.444	4.9
661.773	4.91
662.102	4.9
662.431	4.9
662.76	4.92
663.089	4.92
663.418	4.93
663.747	4.93
664.076	4.94
664.404	4.94
664.733	4.94
665.062	4.95
665.39	4.95
665.719	4.96
666.048	4.96
666.376	4.96
666.705	4.96
667.033	4.97
667.362	4.97
667.69	4.97
668.018	4.97
668.347	4.98
668.675	4.99
669.003	4.99
669.331	4.99
669.659	5
669.987	5
670.315	5.01
670.643	5.02
670.971	5.03
671.299	5.04
671.627	5.03
671.955	5.03
672.283	5.03
672.61	5.04
672.938	5.04
673.266	5.04
673.593	5.04
673.921	5.04
674.249	5.04
674.576	5.04
674.904	5.05
675.231	5.05
675.558	5.05
675.886	5.06
676.213	5.06
676.54	5.05
676.867	5.05
677.195	5.04
677.522	5.03
677.849	5.03
678.176	5.03
678.503	5.03
678.83	5.04
679.157	5.03
679.484	5.03
679.81	5.05
680.137	5.05
680.464	5.05
680.791	5.06
681.117	5.06
681.444	5.06
681.771	5.06
682.097	5.06
682.424	5.06
