Data from UWBM50074_Reflection_00008.txt Node
Date: Sun May 02 12:35:26 EDT 2021
User: vgr7
Spectrometer: USB2G7710
Scans to average: 10
Trigger mode: 4
Integration Time (sec): 1.000000E-1
Electric dark correction enabled: true
Boxcar width: 10
XAxis mode: Wavelengths
Number of Pixels in Spectrum: 2048
>>>>>Begin Spectral Data<<<<<
177.721	-106.45
178.105	-313.64
178.488	624.59
178.871	-141.51
179.254	300
179.636	140.77
180.019	-153.44
180.402	36.84
180.785	53.26
181.168	118.71
181.55	196.06
181.933	-355.38
182.316	-223.2
182.698	-252.81
183.081	-242.4
183.463	467.09
183.846	106.86
184.228	68.98
184.611	58.21
184.993	49.08
185.376	51.53
185.758	43.4
186.14	28.18
186.522	29.53
186.904	28.85
187.287	31.34
187.669	26.19
188.051	21.29
188.433	15.11
188.815	13.59
189.197	14.3
189.579	11.73
189.961	11.47
190.342	6.26
190.724	11.82
191.106	7.41
191.488	8.49
191.869	6.38
192.251	8.57
192.633	7.74
193.014	2.77
193.396	2.4
193.777	3.41
194.159	4.4
194.54	1.99
194.922	1.66
195.303	4.61
195.684	6.57
196.065	6.54
196.447	4.73
196.828	4.2
197.209	1.04
197.59	-0.71
197.971	-4.15
198.352	-0.23
198.733	1.73
199.114	2.88
199.495	0.52
199.876	0.66
200.257	1.53
200.638	1.98
201.018	4.72
201.399	6.1
201.78	6.89
202.16	6.86
202.541	9.69
202.922	10.53
203.302	9.07
203.683	8.54
204.063	7.41
204.444	9.56
204.824	11.67
205.204	12.03
205.585	12.22
205.965	14.35
206.345	13.23
206.725	8.19
207.106	8.6
207.486	8.32
207.866	9.66
208.246	10.22
208.626	13.01
209.006	13.71
209.386	8.96
209.766	6.83
210.145	7.36
210.525	5.53
210.905	6.93
211.285	6.76
211.664	6.16
212.044	7.96
212.424	10.26
212.803	10.27
213.183	12.89
213.562	10.68
213.942	9.27
214.321	6.7
214.701	5.68
215.08	6.93
215.459	8.17
215.838	7.94
216.218	9.71
216.597	10.23
216.976	10.05
217.355	12.72
217.734	14.59
218.113	13.85
218.492	14.08
218.871	14.49
219.25	15.27
219.629	15.72
220.008	17.96
220.387	15.21
220.766	11.57
221.144	10.84
221.523	12.64
221.902	13.87
222.28	15.57
222.659	16.82
223.037	18.5
223.416	19.93
223.794	20.84
224.173	18.4
224.551	16.94
224.929	14.83
225.308	14.21
225.686	13.42
226.064	14.09
226.442	14.04
226.821	13.05
227.199	12.34
227.577	11.61
227.955	9.83
228.333	9.65
228.711	10.52
229.089	10.68
229.467	10.77
229.845	11.03
230.222	10.85
230.6	10.14
230.978	9.61
231.356	8.62
231.733	7.8
232.111	8.1
232.488	7.72
232.866	7.72
233.243	7.38
233.621	7.31
233.998	6.96
234.376	6.91
234.753	6.9
235.13	6.69
235.508	7.08
235.885	7.22
236.262	7.01
236.639	7.33
237.016	6.82
237.393	6.47
237.77	5.81
238.147	5.6
238.524	5.69
238.901	5.54
239.278	5.41
239.655	5.39
240.032	5.21
240.409	5.19
240.785	5.08
241.162	5.15
241.539	5.02
241.915	4.94
242.292	4.92
242.668	4.89
243.045	4.85
243.421	4.74
243.798	4.64
244.174	4.62
244.551	4.5
244.927	4.47
245.303	4.44
245.679	4.52
246.056	4.48
246.432	4.47
246.808	4.44
247.184	4.4
247.56	4.38
247.936	4.39
248.312	4.38
248.688	4.45
249.064	4.37
249.44	4.39
249.815	4.41
250.191	4.4
250.567	4.37
250.943	4.42
251.318	4.43
251.694	4.41
252.069	4.36
252.445	4.37
252.82	4.39
253.196	4.42
253.571	4.37
253.947	4.43
254.322	4.42
254.697	4.44
255.073	4.44
255.448	4.42
255.823	4.36
256.198	4.28
256.573	4.17
256.948	4.13
257.323	4.13
257.698	4.08
258.073	4.02
258.448	4.02
258.823	4
259.198	3.98
259.573	4
259.948	4.06
260.322	4.03
260.697	4.02
261.072	4.02
261.446	4
261.821	3.98
262.195	3.92
262.57	3.9
262.944	3.91
263.319	3.92
263.693	3.93
264.067	3.97
264.442	3.99
264.816	4.01
265.19	3.99
265.564	4.01
265.938	4.01
266.313	3.99
266.687	3.94
267.061	3.92
267.435	3.92
267.809	3.89
268.183	3.91
268.556	3.93
268.93	3.94
269.304	3.91
269.678	3.86
270.051	3.85
270.425	3.83
270.799	3.83
271.172	3.83
271.546	3.8
271.919	3.81
272.293	3.79
272.666	3.77
273.04	3.79
273.413	3.74
273.787	3.74
274.16	3.72
274.533	3.73
274.906	3.72
275.279	3.74
275.653	3.71
276.026	3.66
276.399	3.63
276.772	3.62
277.145	3.67
277.518	3.72
277.891	3.76
278.263	3.78
278.636	3.79
279.009	3.8
279.382	3.79
279.755	3.76
280.127	3.78
280.5	3.8
280.872	3.77
281.245	3.82
281.617	3.83
281.99	3.85
282.362	3.84
282.735	3.83
283.107	3.8
283.479	3.83
283.852	3.83
284.224	3.83
284.596	3.81
284.968	3.8
285.34	3.8
285.713	3.85
286.085	3.82
286.457	3.82
286.829	3.79
287.201	3.8
287.572	3.81
287.944	3.84
288.316	3.88
288.688	3.92
289.06	3.92
289.431	3.93
289.803	3.94
290.175	3.98
290.546	4
290.918	4.05
291.289	4.06
291.661	4.11
292.032	4.13
292.403	4.15
292.775	4.14
293.146	4.16
293.517	4.15
293.889	4.19
294.26	4.23
294.631	4.26
295.002	4.3
295.373	4.34
295.744	4.35
296.115	4.36
296.486	4.35
296.857	4.36
297.228	4.4
297.599	4.42
297.97	4.44
298.34	4.48
298.711	4.5
299.082	4.51
299.452	4.54
299.823	4.59
300.194	4.63
300.564	4.66
300.935	4.69
301.305	4.72
301.676	4.75
302.046	4.76
302.416	4.81
302.787	4.86
303.157	4.9
303.527	4.94
303.897	5.01
304.267	5.08
304.637	5.14
305.008	5.18
305.378	5.24
305.748	5.29
306.117	5.35
306.487	5.39
306.857	5.45
307.227	5.49
307.597	5.5
307.967	5.56
308.336	5.62
308.706	5.67
309.076	5.73
309.445	5.78
309.815	5.84
310.184	5.88
310.554	5.91
310.923	5.91
311.293	5.96
311.662	6.01
312.031	6.05
312.401	6.08
312.77	6.11
313.139	6.14
313.508	6.16
313.877	6.2
314.246	6.24
314.616	6.31
314.985	6.38
315.353	6.41
315.722	6.46
316.091	6.52
316.46	6.61
316.829	6.66
317.198	6.72
317.567	6.8
317.935	6.85
318.304	6.91
318.672	7.01
319.041	7.06
319.41	7.09
319.778	7.17
320.147	7.26
320.515	7.34
320.883	7.4
321.252	7.48
321.62	7.5
321.988	7.55
322.357	7.6
322.725	7.63
323.093	7.7
323.461	7.76
323.829	7.82
324.197	7.85
324.565	7.87
324.933	7.92
325.301	7.95
325.669	8.01
326.037	8.02
326.405	8.04
326.772	8.06
327.14	8.09
327.508	8.1
327.875	8.15
328.243	8.18
328.61	8.2
328.978	8.26
329.346	8.31
329.713	8.36
330.08	8.4
330.448	8.43
330.815	8.48
331.182	8.5
331.55	8.52
331.917	8.55
332.284	8.6
332.651	8.63
333.018	8.67
333.385	8.68
333.752	8.75
334.119	8.78
334.486	8.82
334.853	8.85
335.22	8.89
335.587	8.88
335.954	8.91
336.32	8.91
336.687	8.93
337.054	8.94
337.42	8.97
337.787	8.98
338.153	9.01
338.52	9.03
338.886	9.07
339.253	9.07
339.619	9.09
339.986	9.1
340.352	9.14
340.718	9.16
341.084	9.19
341.451	9.22
341.817	9.22
342.183	9.26
342.549	9.3
342.915	9.31
343.281	9.35
343.647	9.38
344.013	9.42
344.379	9.44
344.745	9.5
345.11	9.53
345.476	9.57
345.842	9.59
346.208	9.61
346.573	9.61
346.939	9.66
347.304	9.68
347.67	9.69
348.035	9.7
348.401	9.71
348.766	9.72
349.132	9.73
349.497	9.76
349.862	9.76
350.228	9.77
350.593	9.79
350.958	9.77
351.323	9.75
351.688	9.77
352.053	9.76
352.418	9.74
352.783	9.74
353.148	9.73
353.513	9.72
353.878	9.72
354.243	9.73
354.608	9.7
354.972	9.68
355.337	9.68
355.702	9.68
356.066	9.66
356.431	9.64
356.795	9.63
357.16	9.59
357.524	9.57
357.889	9.53
358.253	9.52
358.618	9.52
358.982	9.52
359.346	9.48
359.71	9.47
360.075	9.45
360.439	9.43
360.803	9.39
361.167	9.37
361.531	9.35
361.895	9.32
362.259	9.31
362.623	9.29
362.987	9.27
363.351	9.23
363.714	9.21
364.078	9.19
364.442	9.17
364.806	9.15
365.169	9.13
365.533	9.1
365.896	9.07
366.26	9.02
366.623	8.98
366.987	8.94
367.35	8.9
367.714	8.85
368.077	8.81
368.44	8.77
368.803	8.72
369.167	8.68
369.53	8.65
369.893	8.61
370.256	8.56
370.619	8.52
370.982	8.47
371.345	8.4
371.708	8.34
372.071	8.27
372.434	8.23
372.797	8.16
373.159	8.12
373.522	8.05
373.885	8.01
374.247	7.95
374.61	7.89
374.973	7.83
375.335	7.77
375.698	7.71
376.06	7.65
376.423	7.59
376.785	7.54
377.147	7.47
377.51	7.41
377.872	7.34
378.234	7.28
378.596	7.24
378.958	7.19
379.321	7.16
379.683	7.11
380.045	7.04
380.407	6.98
380.769	6.92
381.13	6.87
381.492	6.82
381.854	6.77
382.216	6.74
382.578	6.7
382.939	6.67
383.301	6.64
383.663	6.61
384.024	6.57
384.386	6.53
384.747	6.5
385.109	6.47
385.47	6.45
385.832	6.42
386.193	6.39
386.554	6.36
386.916	6.33
387.277	6.31
387.638	6.3
387.999	6.28
388.36	6.26
388.721	6.23
389.082	6.19
389.443	6.17
389.804	6.14
390.165	6.1
390.526	6.07
390.887	6.03
391.248	5.99
391.609	5.96
391.969	5.94
392.33	5.92
392.691	5.89
393.051	5.85
393.412	5.81
393.772	5.77
394.133	5.74
394.493	5.7
394.854	5.66
395.214	5.62
395.574	5.58
395.935	5.55
396.295	5.51
396.655	5.47
397.015	5.42
397.376	5.38
397.736	5.35
398.096	5.31
398.456	5.28
398.816	5.25
399.176	5.21
399.535	5.18
399.895	5.14
400.255	5.11
400.615	5.08
400.975	5.05
401.334	5.02
401.694	5
402.054	4.99
402.413	4.97
402.773	4.95
403.132	4.93
403.492	4.91
403.851	4.9
404.211	4.89
404.57	4.89
404.929	4.87
405.288	4.85
405.648	4.85
406.007	4.84
406.366	4.83
406.725	4.82
407.084	4.8
407.443	4.79
407.802	4.79
408.161	4.79
408.52	4.78
408.879	4.78
409.238	4.77
409.596	4.76
409.955	4.74
410.314	4.74
410.673	4.73
411.031	4.72
411.39	4.71
411.748	4.71
412.107	4.7
412.465	4.69
412.824	4.69
413.182	4.68
413.54	4.67
413.899	4.66
414.257	4.65
414.615	4.65
414.974	4.64
415.332	4.64
415.69	4.63
416.048	4.64
416.406	4.67
416.764	4.69
417.122	4.72
417.48	4.75
417.838	4.79
418.195	4.85
418.553	4.88
418.911	4.93
419.269	4.98
419.626	5.03
419.984	5.09
420.342	5.12
420.699	5.16
421.057	5.2
421.414	5.24
421.772	5.27
422.129	5.3
422.486	5.32
422.844	5.32
423.201	5.31
423.558	5.28
423.915	5.23
424.273	5.18
424.63	5.11
424.987	5.04
425.344	4.96
425.701	4.89
426.058	4.83
426.415	4.77
426.772	4.7
427.128	4.64
427.485	4.55
427.842	4.5
428.199	4.44
428.555	4.37
428.912	4.31
429.269	4.25
429.625	4.21
429.982	4.16
430.338	4.14
430.695	4.13
431.051	4.13
431.407	4.15
431.764	4.16
432.12	4.19
432.476	4.23
432.832	4.25
433.189	4.27
433.545	4.27
433.901	4.28
434.257	4.28
434.613	4.28
434.969	4.3
435.325	4.32
435.681	4.34
436.036	4.38
436.392	4.41
436.748	4.46
437.104	4.51
437.459	4.56
437.815	4.61
438.171	4.66
438.526	4.68
438.882	4.72
439.237	4.77
439.593	4.79
439.948	4.81
440.304	4.82
440.659	4.84
441.014	4.87
441.369	4.9
441.725	4.94
442.08	4.99
442.435	5.04
442.79	5.1
443.145	5.15
443.5	5.17
443.855	5.21
444.21	5.21
444.565	5.2
444.92	5.2
445.275	5.2
445.629	5.18
445.984	5.18
446.339	5.15
446.693	5.11
447.048	5.09
447.403	5.06
447.757	5.04
448.112	5.02
448.466	4.97
448.82	4.92
449.175	4.86
449.529	4.79
449.883	4.71
450.238	4.62
450.592	4.54
450.946	4.47
451.3	4.39
451.654	4.33
452.008	4.28
452.362	4.21
452.716	4.15
453.07	4.1
453.424	4.06
453.778	4.04
454.132	4.03
454.486	4.03
454.839	4.04
455.193	4.07
455.547	4.11
455.9	4.17
456.254	4.23
456.607	4.29
456.961	4.36
457.314	4.44
457.668	4.5
458.021	4.55
458.375	4.59
458.728	4.61
459.081	4.63
459.434	4.63
459.787	4.65
460.141	4.64
460.494	4.62
460.847	4.6
461.2	4.6
461.553	4.6
461.906	4.59
462.259	4.58
462.611	4.56
462.964	4.53
463.317	4.49
463.67	4.45
464.022	4.41
464.375	4.37
464.728	4.32
465.08	4.28
465.433	4.24
465.785	4.22
466.138	4.23
466.49	4.21
466.843	4.23
467.195	4.24
467.547	4.27
467.899	4.32
468.252	4.36
468.604	4.39
468.956	4.41
469.308	4.44
469.66	4.45
470.012	4.46
470.364	4.47
470.716	4.48
471.068	4.5
471.42	4.51
471.772	4.51
472.123	4.53
472.475	4.54
472.827	4.55
473.178	4.55
473.53	4.55
473.882	4.56
474.233	4.56
474.585	4.58
474.936	4.58
475.288	4.57
475.639	4.58
475.99	4.58
476.342	4.59
476.693	4.59
477.044	4.6
477.395	4.62
477.746	4.66
478.097	4.72
478.448	4.83
478.8	5
479.15	5.22
479.501	5.46
479.852	5.74
480.203	6.04
480.554	6.35
480.905	6.67
481.255	7
481.606	7.33
481.957	7.66
482.307	7.99
482.658	8.29
483.009	8.57
483.359	8.83
483.709	9.09
484.06	9.34
484.41	9.58
484.761	9.8
485.111	9.99
485.461	10.15
485.811	10.25
486.162	10.28
486.512	10.27
486.862	10.21
487.212	10.12
487.562	10
487.912	9.86
488.262	9.7
488.612	9.53
488.961	9.35
489.311	9.15
489.661	8.95
490.011	8.76
490.36	8.57
490.71	8.36
491.06	8.14
491.409	7.93
491.759	7.72
492.108	7.52
492.458	7.33
492.807	7.14
493.157	6.97
493.506	6.81
493.855	6.65
494.204	6.5
494.554	6.36
494.903	6.23
495.252	6.1
495.601	5.97
495.95	5.85
496.299	5.73
496.648	5.61
496.997	5.5
497.346	5.41
497.695	5.33
498.043	5.29
498.392	5.28
498.741	5.28
499.09	5.29
499.438	5.31
499.787	5.33
500.135	5.36
500.484	5.4
500.832	5.45
501.181	5.5
501.529	5.55
501.878	5.61
502.226	5.67
502.574	5.74
502.923	5.82
503.271	5.92
503.619	6.03
503.967	6.16
504.315	6.3
504.663	6.45
505.011	6.62
505.359	6.8
505.707	6.97
506.055	7.15
506.403	7.34
506.751	7.52
507.098	7.72
507.446	7.91
507.794	8.1
508.141	8.3
508.489	8.49
508.837	8.69
509.184	8.89
509.531	9.1
509.879	9.31
510.226	9.51
510.574	9.71
510.921	9.92
511.268	10.12
511.616	10.33
511.963	10.55
512.31	10.78
512.657	11.03
513.004	11.3
513.351	11.59
513.698	11.91
514.045	12.25
514.392	12.61
514.739	12.99
515.086	13.39
515.432	13.8
515.779	14.23
516.126	14.64
516.473	15.05
516.819	15.44
517.166	15.8
517.512	16.14
517.859	16.46
518.205	16.75
518.552	17.03
518.898	17.29
519.245	17.55
519.591	17.8
519.937	18.07
520.283	18.37
520.629	18.71
520.976	19.07
521.322	19.46
521.668	19.86
522.014	20.31
522.36	20.79
522.706	21.37
523.052	22.12
523.398	23.06
523.743	24.19
524.089	25.47
524.435	26.85
524.781	28.32
525.126	29.87
525.472	31.46
525.817	33.09
526.163	34.7
526.509	36.27
526.854	37.76
527.199	39.11
527.545	40.27
527.89	41.31
528.235	42.29
528.581	43.23
528.926	44.13
529.271	44.96
529.616	45.71
529.961	46.32
530.306	46.75
530.651	46.97
530.996	46.98
531.341	46.89
531.686	46.67
532.031	46.3
532.376	45.79
532.721	45.19
533.065	44.52
533.41	43.85
533.755	43.18
534.099	42.56
534.444	42.02
534.788	41.59
535.133	41.23
535.477	40.89
535.822	40.64
536.166	40.52
536.51	40.53
536.855	40.67
537.199	40.93
537.543	41.29
537.887	41.75
538.231	42.29
538.576	42.84
538.92	43.44
539.264	44.08
539.608	44.74
539.951	45.35
540.295	45.85
540.639	46.27
540.983	46.63
541.327	46.98
541.671	47.32
542.014	47.62
542.358	47.88
542.701	48.1
543.045	48.16
543.389	48.05
543.732	47.76
544.075	47.31
544.419	46.71
544.762	45.95
545.105	45.04
545.449	44.15
545.792	43.23
546.135	42.4
546.478	41.69
546.821	41.03
547.165	40.47
547.508	40.05
547.851	39.76
548.194	39.55
548.536	39.38
548.879	39.24
549.222	39.16
549.565	39.14
549.908	39.16
550.25	39.25
550.593	39.39
550.936	39.59
551.278	39.84
551.621	40.17
551.963	40.61
552.306	41.13
552.648	41.57
552.991	42.02
553.333	42.33
553.675	42.5
554.017	42.67
554.36	42.85
554.702	43.03
555.044	43.17
555.386	43.33
555.728	43.49
556.07	43.65
556.412	43.82
556.754	44
557.096	44.16
557.438	44.32
557.78	44.51
558.121	44.67
558.463	44.83
558.805	44.99
559.147	45.14
559.488	45.31
559.83	45.47
560.171	45.62
560.513	45.78
560.854	45.95
561.196	46.13
561.537	46.3
561.878	46.47
562.22	46.65
562.561	46.83
562.902	47
563.243	47.17
563.584	47.34
563.925	47.52
564.266	47.68
564.607	47.81
564.948	47.95
565.289	48.07
565.63	48.21
565.971	48.35
566.312	48.47
566.653	48.59
566.993	48.72
567.334	48.85
567.675	49.01
568.015	49.14
568.356	49.26
568.696	49.38
569.037	49.52
569.377	49.63
569.718	49.77
570.058	49.88
570.398	50
570.739	50.1
571.079	50.19
571.419	50.29
571.759	50.39
572.099	50.48
572.439	50.58
572.779	50.67
573.119	50.74
573.459	50.82
573.799	50.91
574.139	50.99
574.479	51.05
574.819	51.09
575.158	51.13
575.498	51.17
575.838	51.23
576.177	51.27
576.517	51.31
576.856	51.34
577.196	51.37
577.535	51.4
577.875	51.43
578.214	51.46
578.553	51.5
578.893	51.53
579.232	51.55
579.571	51.58
579.91	51.63
580.25	51.68
580.589	51.73
580.928	51.78
581.267	51.83
581.606	51.88
581.945	51.95
582.283	52.02
582.622	52.08
582.961	52.14
583.3	52.18
583.639	52.27
583.977	52.32
584.316	52.4
584.654	52.46
584.993	52.54
585.332	52.61
585.67	52.66
586.008	52.77
586.347	52.85
586.685	52.94
587.024	53.01
587.362	53.1
587.7	53.17
588.038	53.22
588.376	53.28
588.715	53.35
589.053	53.41
589.391	53.46
589.729	53.55
590.067	53.62
590.404	53.72
590.742	53.78
591.08	53.85
591.418	53.92
591.756	54
592.093	54.07
592.431	54.17
592.769	54.26
593.106	54.33
593.444	54.43
593.781	54.51
594.119	54.56
594.456	54.64
594.793	54.72
595.131	54.79
595.468	54.86
595.805	54.92
596.143	54.97
596.48	55.02
596.817	55.04
597.154	55.08
597.491	55.09
597.828	55.15
598.165	55.19
598.502	55.24
598.839	55.28
599.176	55.31
599.512	55.34
599.849	55.4
600.186	55.47
600.523	55.51
600.859	55.57
601.196	55.66
601.532	55.71
601.869	55.76
602.205	55.84
602.542	55.89
602.878	55.93
603.215	56
603.551	56.07
603.887	56.12
604.223	56.18
604.56	56.23
604.896	56.27
605.232	56.31
605.568	56.35
605.904	56.39
606.24	56.44
606.576	56.48
606.912	56.51
607.248	56.53
607.583	56.54
607.919	56.55
608.255	56.56
608.591	56.57
608.926	56.57
609.262	56.57
609.597	56.57
609.933	56.6
610.268	56.61
610.604	56.6
610.939	56.59
611.275	56.59
611.61	56.61
611.945	56.6
612.281	56.59
612.616	56.61
612.951	56.61
613.286	56.58
613.621	56.59
613.956	56.57
614.291	56.57
614.626	56.59
614.961	56.6
615.296	56.59
615.631	56.6
615.966	56.62
616.3	56.63
616.635	56.64
616.97	56.61
617.304	56.61
617.639	56.66
617.973	56.69
618.308	56.72
618.642	56.74
618.977	56.79
619.311	56.81
619.646	56.8
619.98	56.84
620.314	56.86
620.648	56.88
620.983	56.94
621.317	56.97
621.651	57.01
621.985	57.03
622.319	57.07
622.653	57.12
622.987	57.17
623.321	57.22
623.655	57.26
623.988	57.34
624.322	57.38
624.656	57.4
624.99	57.44
625.323	57.49
625.657	57.53
625.99	57.55
626.324	57.58
626.657	57.63
626.991	57.66
627.324	57.72
627.658	57.75
627.991	57.74
628.324	57.77
628.657	57.77
628.991	57.81
629.324	57.82
629.657	57.82
629.99	57.83
630.323	57.84
630.656	57.88
630.989	57.9
631.322	57.93
631.655	57.98
631.987	57.99
632.32	57.98
632.653	57.98
632.986	58
633.318	58.01
633.651	58
633.984	58.02
634.316	58.03
634.649	58.05
634.981	58.07
635.313	58.08
635.646	58.12
635.978	58.11
636.31	58.14
636.643	58.14
636.975	58.18
637.307	58.2
637.639	58.19
637.971	58.21
638.303	58.24
638.635	58.24
638.967	58.26
639.299	58.29
639.631	58.32
639.963	58.35
640.295	58.37
640.626	58.4
640.958	58.41
641.29	58.41
641.621	58.39
641.953	58.42
642.285	58.43
642.616	58.42
642.948	58.45
643.279	58.48
643.61	58.49
643.942	58.49
644.273	58.5
644.604	58.53
644.936	58.53
645.267	58.53
645.598	58.56
645.929	58.58
646.26	58.6
646.591	58.62
646.922	58.65
647.253	58.69
647.584	58.72
647.915	58.74
648.245	58.79
648.576	58.83
648.907	58.85
649.238	58.89
649.568	58.94
649.899	58.99
650.229	58.98
650.56	59.01
650.89	59.02
651.221	59.07
651.551	59.09
651.882	59.12
652.212	59.13
652.542	59.14
652.872	59.17
653.203	59.21
653.533	59.24
653.863	59.24
654.193	59.24
654.523	59.26
654.853	59.28
655.183	59.29
655.513	59.32
655.843	59.35
656.172	59.35
656.502	59.39
656.832	59.39
657.162	59.43
657.491	59.51
657.821	59.56
658.15	59.56
658.48	59.56
658.809	59.61
659.139	59.62
659.468	59.64
659.798	59.64
660.127	59.64
660.456	59.64
660.785	59.66
661.115	59.7
661.444	59.72
661.773	59.72
662.102	59.74
662.431	59.75
662.76	59.74
663.089	59.75
663.418	59.74
663.747	59.75
664.076	59.74
664.404	59.7
664.733	59.71
665.062	59.71
665.39	59.74
665.719	59.72
666.048	59.76
666.376	59.77
666.705	59.76
667.033	59.76
667.362	59.81
667.69	59.82
668.018	59.8
668.347	59.79
668.675	59.83
669.003	59.81
669.331	59.82
669.659	59.82
669.987	59.85
