Data from UWBM86267_Reflection_00002.txt Node
Date: Sun May 02 14:07:10 EDT 2021
User: vgr7
Spectrometer: USB2G7710
Scans to average: 10
Trigger mode: 4
Integration Time (sec): 1.000000E-1
Electric dark correction enabled: true
Boxcar width: 20
XAxis mode: Wavelengths
Number of Pixels in Spectrum: 2048
>>>>>Begin Spectral Data<<<<<
177.721	105.14
178.105	-11
178.488	24.44
178.871	73.13
179.254	50.07
179.636	41.51
180.019	39.1
180.402	34.85
180.785	35.84
181.168	43.37
181.55	30.69
181.933	34.89
182.316	27.28
182.698	19.09
183.081	12.45
183.463	9.42
183.846	6.23
184.228	10.14
184.611	8.77
184.993	3.73
185.376	1.78
185.758	5.15
186.14	6.22
186.522	5.41
186.904	6.02
187.287	6.56
187.669	6.71
188.051	6.93
188.433	4.88
188.815	0.82
189.197	4.06
189.579	7.17
189.961	5.42
190.342	3.3
190.724	3.5
191.106	5.73
191.488	5.73
191.869	3.19
192.251	2.52
192.633	3.08
193.014	1.82
193.396	-0.99
193.777	3.91
194.159	4.76
194.54	3.46
194.922	2.26
195.303	0.86
195.684	-0.23
196.065	0.3
196.447	1.25
196.828	-0.05
197.209	-0.83
197.59	-4.69
197.971	-5.88
198.352	-2.71
198.733	0.79
199.114	-0.13
199.495	1.21
199.876	-0.05
200.257	0.62
200.638	2.4
201.018	5.3
201.399	5.92
201.78	5
202.16	6.33
202.541	6.7
202.922	6.88
203.302	8.54
203.683	9.1
204.063	10.25
204.444	9.91
204.824	8.64
205.204	7.9
205.585	9.07
205.965	10.49
206.345	11.67
206.725	10.26
207.106	9.27
207.486	8.94
207.866	9.26
208.246	7.36
208.626	7.48
209.006	8.63
209.386	7.24
209.766	6.28
210.145	6.95
210.525	8.1
210.905	9.5
211.285	8.46
211.664	8.69
212.044	8.01
212.424	7.28
212.803	8.06
213.183	8.93
213.562	11.86
213.942	10.56
214.321	8.2
214.701	7.92
215.08	7.27
215.459	6.83
215.838	6.26
216.218	5.21
216.597	3.53
216.976	3.36
217.355	5.28
217.734	4.64
218.113	4.07
218.492	2.92
218.871	1.38
219.25	0.95
219.629	1.06
220.008	1.74
220.387	0.46
220.766	1.81
221.144	1.41
221.523	1.55
221.902	1.79
222.28	2.01
222.659	2.76
223.037	2.64
223.416	3.85
223.794	4.26
224.173	4.65
224.551	4.26
224.929	5.72
225.308	5.62
225.686	5.49
226.064	5.02
226.442	4.99
226.821	5.37
227.199	5.47
227.577	5.44
227.955	5.13
228.333	5.16
228.711	5.18
229.089	4.63
229.467	4.38
229.845	4.37
230.222	4.78
230.6	4.68
230.978	4.92
231.356	5.01
231.733	4.96
232.111	4.74
232.488	4.51
232.866	4.2
233.243	3.92
233.621	3.94
233.998	4.08
234.376	4.14
234.753	3.86
235.13	3.8
235.508	3.81
235.885	3.74
236.262	3.63
236.639	3.45
237.016	3.36
237.393	3.3
237.77	3.21
238.147	3.08
238.524	3.12
238.901	2.99
239.278	2.99
239.655	2.92
240.032	2.81
240.409	2.75
240.785	2.74
241.162	2.71
241.539	2.72
241.915	2.74
242.292	2.78
242.668	2.73
243.045	2.69
243.421	2.72
243.798	2.71
244.174	2.76
244.551	2.77
244.927	2.75
245.303	2.76
245.679	2.72
246.056	2.7
246.432	2.69
246.808	2.66
247.184	2.69
247.56	2.69
247.936	2.68
248.312	2.68
248.688	2.68
249.064	2.67
249.44	2.66
249.815	2.64
250.191	2.6
250.567	2.61
250.943	2.58
251.318	2.56
251.694	2.55
252.069	2.56
252.445	2.57
252.82	2.54
253.196	2.54
253.571	2.55
253.947	2.55
254.322	2.54
254.697	2.53
255.073	2.53
255.448	2.57
255.823	2.52
256.198	2.53
256.573	2.51
256.948	2.51
257.323	2.49
257.698	2.44
258.073	2.42
258.448	2.4
258.823	2.38
259.198	2.37
259.573	2.33
259.948	2.33
260.322	2.32
260.697	2.3
261.072	2.31
261.446	2.31
261.821	2.29
262.195	2.27
262.57	2.25
262.944	2.25
263.319	2.27
263.693	2.27
264.067	2.27
264.442	2.26
264.816	2.23
265.19	2.24
265.564	2.27
265.938	2.25
266.313	2.24
266.687	2.25
267.061	2.26
267.435	2.26
267.809	2.25
268.183	2.26
268.556	2.25
268.93	2.24
269.304	2.24
269.678	2.24
270.051	2.23
270.425	2.21
270.799	2.2
271.172	2.21
271.546	2.19
271.919	2.2
272.293	2.21
272.666	2.2
273.04	2.21
273.413	2.24
273.787	2.27
274.16	2.27
274.533	2.28
274.906	2.29
275.279	2.29
275.653	2.31
276.026	2.31
276.399	2.32
276.772	2.33
277.145	2.31
277.518	2.33
277.891	2.35
278.263	2.34
278.636	2.32
279.009	2.3
279.382	2.31
279.755	2.33
280.127	2.35
280.5	2.36
280.872	2.35
281.245	2.35
281.617	2.36
281.99	2.36
282.362	2.34
282.735	2.34
283.107	2.32
283.479	2.31
283.852	2.33
284.224	2.32
284.596	2.3
284.968	2.31
285.34	2.3
285.713	2.31
286.085	2.3
286.457	2.31
286.829	2.31
287.201	2.31
287.572	2.3
287.944	2.32
288.316	2.31
288.688	2.3
289.06	2.29
289.431	2.3
289.803	2.31
290.175	2.32
290.546	2.33
290.918	2.33
291.289	2.35
291.661	2.34
292.032	2.34
292.403	2.35
292.775	2.36
293.146	2.34
293.517	2.36
293.889	2.36
294.26	2.38
294.631	2.4
295.002	2.39
295.373	2.4
295.744	2.4
296.115	2.41
296.486	2.43
296.857	2.44
297.228	2.44
297.599	2.45
297.97	2.46
298.34	2.47
298.711	2.48
299.082	2.49
299.452	2.51
299.823	2.52
300.194	2.51
300.564	2.52
300.935	2.53
301.305	2.55
301.676	2.56
302.046	2.57
302.416	2.58
302.787	2.57
303.157	2.57
303.527	2.58
303.897	2.58
304.267	2.6
304.637	2.59
305.008	2.59
305.378	2.59
305.748	2.59
306.117	2.58
306.487	2.59
306.857	2.6
307.227	2.62
307.597	2.63
307.967	2.63
308.336	2.64
308.706	2.64
309.076	2.64
309.445	2.64
309.815	2.63
310.184	2.63
310.554	2.63
310.923	2.63
311.293	2.63
311.662	2.63
312.031	2.62
312.401	2.63
312.77	2.63
313.139	2.64
313.508	2.65
313.877	2.64
314.246	2.65
314.616	2.66
314.985	2.67
315.353	2.66
315.722	2.66
316.091	2.65
316.46	2.64
316.829	2.63
317.198	2.65
317.567	2.64
317.935	2.65
318.304	2.65
318.672	2.64
319.041	2.66
319.41	2.65
319.778	2.66
320.147	2.65
320.515	2.64
320.883	2.62
321.252	2.62
321.62	2.61
321.988	2.6
322.357	2.59
322.725	2.6
323.093	2.61
323.461	2.61
323.829	2.62
324.197	2.63
324.565	2.61
324.933	2.63
325.301	2.62
325.669	2.63
326.037	2.62
326.405	2.62
326.772	2.6
327.14	2.6
327.508	2.59
327.875	2.59
328.243	2.57
328.61	2.56
328.978	2.56
329.346	2.56
329.713	2.55
330.08	2.55
330.448	2.55
330.815	2.55
331.182	2.56
331.55	2.57
331.917	2.55
332.284	2.52
332.651	2.53
333.018	2.52
333.385	2.53
333.752	2.54
334.119	2.54
334.486	2.54
334.853	2.53
335.22	2.53
335.587	2.54
335.954	2.54
336.32	2.55
336.687	2.54
337.054	2.54
337.42	2.54
337.787	2.54
338.153	2.53
338.52	2.53
338.886	2.52
339.253	2.53
339.619	2.54
339.986	2.52
340.352	2.53
340.718	2.53
341.084	2.53
341.451	2.53
341.817	2.53
342.183	2.53
342.549	2.53
342.915	2.53
343.281	2.54
343.647	2.54
344.013	2.52
344.379	2.52
344.745	2.53
345.11	2.52
345.476	2.53
345.842	2.53
346.208	2.53
346.573	2.53
346.939	2.54
347.304	2.55
347.67	2.55
348.035	2.56
348.401	2.57
348.766	2.56
349.132	2.57
349.497	2.58
349.862	2.58
350.228	2.58
350.593	2.59
350.958	2.6
351.323	2.59
351.688	2.6
352.053	2.6
352.418	2.61
352.783	2.6
353.148	2.59
353.513	2.6
353.878	2.6
354.243	2.59
354.608	2.59
354.972	2.6
355.337	2.6
355.702	2.6
356.066	2.61
356.431	2.61
356.795	2.61
357.16	2.6
357.524	2.61
357.889	2.61
358.253	2.61
358.618	2.61
358.982	2.62
359.346	2.62
359.71	2.62
360.075	2.63
360.439	2.62
360.803	2.63
361.167	2.63
361.531	2.63
361.895	2.63
362.259	2.63
362.623	2.63
362.987	2.62
363.351	2.62
363.714	2.62
364.078	2.62
364.442	2.61
364.806	2.61
365.169	2.61
365.533	2.61
365.896	2.61
366.26	2.61
366.623	2.61
366.987	2.61
367.35	2.61
367.714	2.62
368.077	2.62
368.44	2.62
368.803	2.62
369.167	2.62
369.53	2.62
369.893	2.62
370.256	2.62
370.619	2.62
370.982	2.62
371.345	2.62
371.708	2.63
372.071	2.64
372.434	2.63
372.797	2.63
373.159	2.64
373.522	2.64
373.885	2.64
374.247	2.65
374.61	2.64
374.973	2.64
375.335	2.64
375.698	2.63
376.06	2.64
376.423	2.64
376.785	2.63
377.147	2.63
377.51	2.63
377.872	2.63
378.234	2.62
378.596	2.62
378.958	2.62
379.321	2.62
379.683	2.62
380.045	2.62
380.407	2.63
380.769	2.63
381.13	2.63
381.492	2.64
381.854	2.64
382.216	2.64
382.578	2.64
382.939	2.64
383.301	2.64
383.663	2.65
384.024	2.65
384.386	2.65
384.747	2.65
385.109	2.65
385.47	2.66
385.832	2.65
386.193	2.65
386.554	2.64
386.916	2.64
387.277	2.64
387.638	2.64
387.999	2.64
388.36	2.64
388.721	2.64
389.082	2.63
389.443	2.63
389.804	2.63
390.165	2.63
390.526	2.63
390.887	2.63
391.248	2.63
391.609	2.63
391.969	2.64
392.33	2.64
392.691	2.64
393.051	2.64
393.412	2.64
393.772	2.65
394.133	2.64
394.493	2.64
394.854	2.64
395.214	2.64
395.574	2.64
395.935	2.64
396.295	2.64
396.655	2.63
397.015	2.63
397.376	2.63
397.736	2.63
398.096	2.64
398.456	2.63
398.816	2.64
399.176	2.64
399.535	2.64
399.895	2.64
400.255	2.63
400.615	2.64
400.975	2.64
401.334	2.64
401.694	2.64
402.054	2.64
402.413	2.64
402.773	2.64
403.132	2.64
403.492	2.65
403.851	2.65
404.211	2.66
404.57	2.66
404.929	2.65
405.288	2.66
405.648	2.66
406.007	2.67
406.366	2.66
406.725	2.66
407.084	2.66
407.443	2.66
407.802	2.66
408.161	2.66
408.52	2.66
408.879	2.67
409.238	2.67
409.596	2.67
409.955	2.67
410.314	2.67
410.673	2.68
411.031	2.68
411.39	2.69
411.748	2.69
412.107	2.69
412.465	2.7
412.824	2.72
413.182	2.73
413.54	2.75
413.899	2.77
414.257	2.79
414.615	2.82
414.974	2.84
415.332	2.87
415.69	2.89
416.048	2.91
416.406	2.94
416.764	2.97
417.122	2.99
417.48	3.01
417.838	3.03
418.195	3.04
418.553	3.06
418.911	3.07
419.269	3.08
419.626	3.08
419.984	3.08
420.342	3.07
420.699	3.06
421.057	3.05
421.414	3.04
421.772	3.03
422.129	3.02
422.486	3.02
422.844	3.02
423.201	3.02
423.558	3.02
423.915	3.02
424.273	3.02
424.63	3.02
424.987	3.02
425.344	3.02
425.701	3.02
426.058	3.02
426.415	3.03
426.772	3.02
427.128	3.02
427.485	3.01
427.842	3.01
428.199	3
428.555	2.98
428.912	2.97
429.269	2.95
429.625	2.93
429.982	2.92
430.338	2.9
430.695	2.88
431.051	2.86
431.407	2.84
431.764	2.83
432.12	2.82
432.476	2.81
432.832	2.81
433.189	2.81
433.545	2.81
433.901	2.82
434.257	2.83
434.613	2.85
434.969	2.87
435.325	2.88
435.681	2.91
436.036	2.93
436.392	2.95
436.748	2.96
437.104	2.97
437.459	2.98
437.815	2.99
438.171	3.01
438.526	3.02
438.882	3.05
439.237	3.07
439.593	3.09
439.948	3.11
440.304	3.14
440.659	3.16
441.014	3.17
441.369	3.19
441.725	3.21
442.08	3.22
442.435	3.23
442.79	3.24
443.145	3.24
443.5	3.24
443.855	3.25
444.21	3.25
444.565	3.25
444.92	3.24
445.275	3.24
445.629	3.23
445.984	3.22
446.339	3.22
446.693	3.21
447.048	3.2
447.403	3.19
447.757	3.17
448.112	3.16
448.466	3.14
448.82	3.13
449.175	3.11
449.529	3.1
449.883	3.08
450.238	3.07
450.592	3.06
450.946	3.05
451.3	3.05
451.654	3.06
452.008	3.06
452.362	3.06
452.716	3.06
453.07	3.07
453.424	3.06
453.778	3.06
454.132	3.06
454.486	3.05
454.839	3.04
455.193	3.02
455.547	3.02
455.9	2.99
456.254	2.98
456.607	2.96
456.961	2.94
457.314	2.93
457.668	2.92
458.021	2.92
458.375	2.91
458.728	2.91
459.081	2.91
459.434	2.92
459.787	2.92
460.141	2.93
460.494	2.94
460.847	2.94
461.2	2.95
461.553	2.95
461.906	2.96
462.259	2.96
462.611	2.96
462.964	2.96
463.317	2.96
463.67	2.97
464.022	2.97
464.375	2.98
464.728	2.98
465.08	2.98
465.433	2.98
465.785	2.98
466.138	2.97
466.49	2.95
466.843	2.94
467.195	2.92
467.547	2.91
467.899	2.89
468.252	2.87
468.604	2.85
468.956	2.84
469.308	2.83
469.66	2.83
470.012	2.82
470.364	2.82
470.716	2.82
471.068	2.83
471.42	2.85
471.772	2.86
472.123	2.87
472.475	2.88
472.827	2.89
473.178	2.89
473.53	2.9
473.882	2.91
474.233	2.92
474.585	2.95
474.936	2.99
475.288	3.05
475.639	3.14
475.99	3.23
476.342	3.33
476.693	3.45
477.044	3.56
477.395	3.68
477.746	3.81
478.097	3.93
478.448	4.05
478.8	4.18
479.15	4.29
479.501	4.4
479.852	4.5
480.203	4.59
480.554	4.68
480.905	4.77
481.255	4.85
481.606	4.92
481.957	5
482.307	5.07
482.658	5.13
483.009	5.2
483.359	5.26
483.709	5.32
484.06	5.38
484.41	5.44
484.761	5.49
485.111	5.54
485.461	5.59
485.811	5.64
486.162	5.68
486.512	5.71
486.862	5.74
487.212	5.76
487.562	5.78
487.912	5.79
488.262	5.79
488.612	5.79
488.961	5.78
489.311	5.75
489.661	5.7
490.011	5.64
490.36	5.56
490.71	5.48
491.06	5.38
491.409	5.28
491.759	5.18
492.108	5.07
492.458	4.96
492.807	4.84
493.157	4.72
493.506	4.61
493.855	4.5
494.204	4.4
494.554	4.3
494.903	4.21
495.252	4.13
495.601	4.04
495.95	3.96
496.299	3.88
496.648	3.81
496.997	3.74
497.346	3.68
497.695	3.61
498.043	3.55
498.392	3.49
498.741	3.43
499.09	3.37
499.438	3.32
499.787	3.27
500.135	3.22
500.484	3.18
500.832	3.15
501.181	3.12
501.529	3.1
501.878	3.09
502.226	3.08
502.574	3.08
502.923	3.08
503.271	3.08
503.619	3.08
503.967	3.08
504.315	3.07
504.663	3.07
505.011	3.07
505.359	3.07
505.707	3.07
506.055	3.06
506.403	3.06
506.751	3.06
507.098	3.07
507.446	3.07
507.794	3.08
508.141	3.08
508.489	3.09
508.837	3.1
509.184	3.11
509.531	3.12
509.879	3.13
510.226	3.14
510.574	3.15
510.921	3.16
511.268	3.17
511.616	3.19
511.963	3.2
512.31	3.22
512.657	3.24
513.004	3.25
513.351	3.27
513.698	3.28
514.045	3.28
514.392	3.29
514.739	3.29
515.086	3.29
515.432	3.29
515.779	3.29
516.126	3.29
516.473	3.29
516.819	3.29
517.166	3.29
517.512	3.3
517.859	3.31
518.205	3.33
518.552	3.35
518.898	3.37
519.245	3.4
519.591	3.44
519.937	3.49
520.283	3.56
520.629	3.63
520.976	3.71
521.322	3.8
521.668	3.89
522.014	3.98
522.36	4.07
522.706	4.16
523.052	4.25
523.398	4.32
523.743	4.39
524.089	4.46
524.435	4.51
524.781	4.56
525.126	4.6
525.472	4.65
525.817	4.69
526.163	4.72
526.509	4.76
526.854	4.79
527.199	4.82
527.545	4.86
527.89	4.9
528.235	4.93
528.581	4.96
528.926	4.99
529.271	5.02
529.616	5.05
529.961	5.08
530.306	5.1
530.651	5.12
530.996	5.13
531.341	5.14
531.686	5.15
532.031	5.15
532.376	5.15
532.721	5.15
533.065	5.16
533.41	5.16
533.755	5.16
534.099	5.15
534.444	5.13
534.788	5.1
535.133	5.08
535.477	5.05
535.822	5.01
536.166	4.97
536.51	4.92
536.855	4.86
537.199	4.8
537.543	4.75
537.887	4.7
538.231	4.65
538.576	4.61
538.92	4.57
539.264	4.53
539.608	4.48
539.951	4.44
540.295	4.39
540.639	4.35
540.983	4.3
541.327	4.25
541.671	4.2
542.014	4.16
542.358	4.12
542.701	4.09
543.045	4.06
543.389	4.04
543.732	4.03
544.075	4.01
544.419	4
544.762	3.99
545.105	3.98
545.449	3.98
545.792	3.97
546.135	3.96
546.478	3.95
546.821	3.94
547.165	3.92
547.508	3.89
547.851	3.86
548.194	3.82
548.536	3.77
548.879	3.72
549.222	3.67
549.565	3.62
549.908	3.57
550.25	3.52
550.593	3.47
550.936	3.44
551.278	3.41
551.621	3.38
551.963	3.36
552.306	3.34
552.648	3.33
552.991	3.32
553.333	3.31
553.675	3.3
554.017	3.3
554.36	3.3
554.702	3.3
555.044	3.31
555.386	3.32
555.728	3.33
556.07	3.34
556.412	3.35
556.754	3.35
557.096	3.35
557.438	3.35
557.78	3.35
558.121	3.35
558.463	3.35
558.805	3.35
559.147	3.35
559.488	3.35
559.83	3.35
560.171	3.36
560.513	3.35
560.854	3.36
561.196	3.36
561.537	3.36
561.878	3.36
562.22	3.36
562.561	3.37
562.902	3.37
563.243	3.37
563.584	3.38
563.925	3.38
564.266	3.38
564.607	3.38
564.948	3.38
565.289	3.38
565.63	3.39
565.971	3.39
566.312	3.4
566.653	3.4
566.993	3.4
567.334	3.41
567.675	3.41
568.015	3.42
568.356	3.42
568.696	3.42
569.037	3.42
569.377	3.42
569.718	3.43
570.058	3.43
570.398	3.43
570.739	3.44
571.079	3.43
571.419	3.43
571.759	3.44
572.099	3.44
572.439	3.44
572.779	3.44
573.119	3.44
573.459	3.44
573.799	3.44
574.139	3.44
574.479	3.44
574.819	3.44
575.158	3.44
575.498	3.44
575.838	3.44
576.177	3.44
576.517	3.44
576.856	3.44
577.196	3.44
577.535	3.44
577.875	3.44
578.214	3.44
578.553	3.44
578.893	3.44
579.232	3.44
579.571	3.44
579.91	3.44
580.25	3.43
580.589	3.43
580.928	3.43
581.267	3.43
581.606	3.43
581.945	3.43
582.283	3.43
582.622	3.43
582.961	3.43
583.3	3.43
583.639	3.43
583.977	3.43
584.316	3.43
584.654	3.43
584.993	3.43
585.332	3.44
585.67	3.43
586.008	3.43
586.347	3.43
586.685	3.43
587.024	3.44
587.362	3.43
587.7	3.44
588.038	3.44
588.376	3.44
588.715	3.44
589.053	3.45
589.391	3.45
589.729	3.45
590.067	3.45
590.404	3.46
590.742	3.46
591.08	3.46
591.418	3.47
591.756	3.47
592.093	3.47
592.431	3.47
592.769	3.48
593.106	3.48
593.444	3.48
593.781	3.48
594.119	3.48
594.456	3.49
594.793	3.48
595.131	3.48
595.468	3.48
595.805	3.48
596.143	3.48
596.48	3.48
596.817	3.49
597.154	3.48
597.491	3.49
597.828	3.49
598.165	3.49
598.502	3.5
598.839	3.5
599.176	3.5
599.512	3.5
599.849	3.51
600.186	3.51
600.523	3.51
600.859	3.51
601.196	3.52
601.532	3.52
601.869	3.52
602.205	3.52
602.542	3.52
602.878	3.52
603.215	3.52
603.551	3.52
603.887	3.52
604.223	3.52
604.56	3.52
604.896	3.53
605.232	3.52
605.568	3.52
605.904	3.53
606.24	3.53
606.576	3.53
606.912	3.53
607.248	3.53
607.583	3.53
607.919	3.53
608.255	3.53
608.591	3.53
608.926	3.53
609.262	3.54
609.597	3.54
609.933	3.54
610.268	3.54
610.604	3.54
610.939	3.54
611.275	3.54
611.61	3.54
611.945	3.55
612.281	3.54
612.616	3.54
612.951	3.54
613.286	3.54
613.621	3.54
613.956	3.54
614.291	3.53
614.626	3.53
614.961	3.53
615.296	3.54
615.631	3.54
615.966	3.54
616.3	3.55
616.635	3.54
616.97	3.55
617.304	3.55
617.639	3.56
617.973	3.55
618.308	3.55
618.642	3.55
618.977	3.55
619.311	3.56
619.646	3.56
619.98	3.56
620.314	3.56
620.648	3.56
620.983	3.57
621.317	3.57
621.651	3.58
621.985	3.58
622.319	3.59
622.653	3.59
622.987	3.59
623.321	3.59
623.655	3.6
623.988	3.6
624.322	3.61
624.656	3.61
624.99	3.61
625.323	3.62
625.657	3.61
625.99	3.61
626.324	3.61
626.657	3.62
626.991	3.62
627.324	3.62
627.658	3.62
627.991	3.61
628.324	3.62
628.657	3.62
628.991	3.62
629.324	3.62
629.657	3.63
629.99	3.63
630.323	3.64
630.656	3.64
630.989	3.64
631.322	3.63
631.655	3.64
631.987	3.65
632.32	3.65
632.653	3.65
632.986	3.66
633.318	3.66
633.651	3.67
633.984	3.66
634.316	3.66
634.649	3.66
634.981	3.66
635.313	3.66
635.646	3.66
635.978	3.66
636.31	3.66
636.643	3.66
636.975	3.66
637.307	3.66
637.639	3.66
637.971	3.66
638.303	3.66
638.635	3.66
638.967	3.65
639.299	3.66
639.631	3.67
639.963	3.68
640.295	3.68
640.626	3.69
640.958	3.69
641.29	3.7
641.621	3.71
641.953	3.71
642.285	3.71
642.616	3.71
642.948	3.71
643.279	3.71
643.61	3.71
643.942	3.72
644.273	3.72
644.604	3.72
644.936	3.73
645.267	3.72
645.598	3.72
645.929	3.72
646.26	3.72
646.591	3.72
646.922	3.71
647.253	3.71
647.584	3.72
647.915	3.72
648.245	3.72
648.576	3.73
648.907	3.73
649.238	3.72
649.568	3.72
649.899	3.72
650.229	3.72
650.56	3.72
650.89	3.72
651.221	3.72
651.551	3.72
651.882	3.72
652.212	3.73
652.542	3.73
652.872	3.73
653.203	3.73
653.533	3.73
653.863	3.73
654.193	3.73
654.523	3.74
654.853	3.73
655.183	3.73
655.513	3.75
655.843	3.75
656.172	3.75
656.502	3.76
656.832	3.76
657.162	3.76
657.491	3.75
657.821	3.75
658.15	3.75
658.48	3.75
658.809	3.76
659.139	3.76
659.468	3.76
659.798	3.76
660.127	3.76
660.456	3.76
660.785	3.77
661.115	3.77
661.444	3.78
661.773	3.78
662.102	3.78
662.431	3.79
662.76	3.79
663.089	3.8
663.418	3.8
663.747	3.81
664.076	3.82
664.404	3.82
664.733	3.83
665.062	3.84
665.39	3.84
665.719	3.84
666.048	3.84
666.376	3.84
666.705	3.84
667.033	3.84
667.362	3.85
667.69	3.84
668.018	3.84
668.347	3.85
668.675	3.86
669.003	3.86
669.331	3.86
669.659	3.86
669.987	3.86
670.315	3.86
670.643	3.86
670.971	3.87
671.299	3.89
671.627	3.89
671.955	3.88
672.283	3.89
672.61	3.89
672.938	3.89
673.266	3.89
673.593	3.89
673.921	3.89
674.249	3.89
674.576	3.89
674.904	3.89
675.231	3.9
675.558	3.89
675.886	3.89
676.213	3.9
676.54	3.9
676.867	3.9
677.195	3.89
677.522	3.89
677.849	3.89
678.176	3.89
678.503	3.9
678.83	3.91
679.157	3.91
679.484	3.92
679.81	3.92
680.137	3.93
680.464	3.94
680.791	3.94
681.117	3.94
681.444	3.95
681.771	3.94
