Data from UWBM59058_Reflection_00009.txt Node
Date: Sun May 02 13:00:52 EDT 2021
User: vgr7
Spectrometer: USB2G7710
Scans to average: 10
Trigger mode: 4
Integration Time (sec): 1.000000E-1
Electric dark correction enabled: true
Boxcar width: 20
XAxis mode: Wavelengths
Number of Pixels in Spectrum: 2048
>>>>>Begin Spectral Data<<<<<
177.721	97.68
178.105	96.85
178.488	95.89
178.871	95.52
179.254	93.65
179.636	92.64
180.019	90.59
180.402	86.37
180.785	82.46
181.168	79.14
181.55	75.85
181.933	122.36
182.316	122.26
182.698	122.63
183.081	124.53
183.463	125.79
183.846	128.23
184.228	130.3
184.611	133.8
184.993	139.14
185.376	143.46
185.758	-102.53
186.14	-60.27
186.522	-32.29
186.904	-16.03
187.287	-5.05
187.669	-2.36
188.051	-3.1
188.433	2.24
188.815	-3.09
189.197	-1.26
189.579	-1.7
189.961	-1.27
190.342	-4.28
190.724	-1.7
191.106	-2.17
191.488	-1.09
191.869	-5.34
192.251	-2.84
192.633	-4.45
193.014	-6.05
193.396	-7.15
193.777	1.55
194.159	3.11
194.54	1.61
194.922	1.54
195.303	3.96
195.684	4.15
196.065	5.43
196.447	4.37
196.828	3.46
197.209	4.99
197.59	-5.17
197.971	-6.09
198.352	-5.67
198.733	-3.65
199.114	-3.46
199.495	-3.51
199.876	-2.73
200.257	-3.92
200.638	-4.2
201.018	-10.34
201.399	-10.89
201.78	-12.06
202.16	-11.76
202.541	-10.13
202.922	-10.89
203.302	-11.88
203.683	-11.45
204.063	-12.59
204.444	-10.89
204.824	-8.7
205.204	-6.67
205.585	3.44
205.965	2.76
206.345	3.98
206.725	-0.43
207.106	0.61
207.486	0.49
207.866	0.9
208.246	1.05
208.626	4.08
209.006	9.05
209.386	4.96
209.766	6.14
210.145	6.19
210.525	5.37
210.905	4.75
211.285	5.74
211.664	4.65
212.044	6.14
212.424	7.13
212.803	1.71
213.183	3.99
213.562	3.87
213.942	2.86
214.321	1.89
214.701	0.21
215.08	2.17
215.459	2.03
215.838	1.07
216.218	1.81
216.597	1.81
216.976	-1.97
217.355	-1.43
217.734	-1.45
218.113	-1.54
218.492	0.91
218.871	0.78
219.25	1.39
219.629	1.38
220.008	1.16
220.387	1.27
220.766	2.58
221.144	1.09
221.523	2.64
221.902	3.15
222.28	3.89
222.659	4.62
223.037	4.31
223.416	4.52
223.794	5.1
224.173	4.61
224.551	4.29
224.929	4.49
225.308	5.02
225.686	4.56
226.064	5.09
226.442	5.54
226.821	5.36
227.199	5.06
227.577	4.47
227.955	3.99
228.333	4.09
228.711	4.23
229.089	4.52
229.467	4.17
229.845	4.65
230.222	4.91
230.6	5.41
230.978	5.45
231.356	5.35
231.733	5.11
232.111	5.12
232.488	5.26
232.866	5.32
233.243	4.95
233.621	5.07
233.998	4.84
234.376	5.06
234.753	5.18
235.13	5.33
235.508	5.84
235.885	5.9
236.262	5.7
236.639	5.78
237.016	5.68
237.393	5.58
237.77	5.45
238.147	5.4
238.524	5.42
238.901	5.4
239.278	5.47
239.655	5.44
240.032	5.4
240.409	5.4
240.785	5.29
241.162	5.37
241.539	5.31
241.915	5.26
242.292	5.25
242.668	5.2
243.045	5.2
243.421	5.06
243.798	5.01
244.174	4.97
244.551	4.94
244.927	4.79
245.303	4.7
245.679	4.72
246.056	4.66
246.432	4.65
246.808	4.44
247.184	4.42
247.56	4.38
247.936	4.39
248.312	4.39
248.688	4.47
249.064	4.44
249.44	4.41
249.815	4.38
250.191	4.32
250.567	4.29
250.943	4.36
251.318	4.36
251.694	4.33
252.069	4.27
252.445	4.27
252.82	4.38
253.196	4.38
253.571	4.35
253.947	4.43
254.322	4.39
254.697	4.51
255.073	4.49
255.448	4.48
255.823	4.46
256.198	4.42
256.573	4.25
256.948	4.23
257.323	4.24
257.698	4.17
258.073	4.14
258.448	4.01
258.823	4.01
259.198	4.01
259.573	4.03
259.948	4.07
260.322	4.04
260.697	4.07
261.072	4.06
261.446	4.05
261.821	4.02
262.195	3.97
262.57	3.95
262.944	3.96
263.319	3.93
263.693	3.94
264.067	3.95
264.442	4.04
264.816	4.03
265.19	4.01
265.564	4.06
265.938	4.01
266.313	4.05
266.687	4
267.061	4
267.435	3.98
267.809	3.96
268.183	3.92
268.556	3.95
268.93	3.94
269.304	3.9
269.678	3.86
270.051	3.83
270.425	3.84
270.799	3.85
271.172	3.84
271.546	3.83
271.919	3.84
272.293	3.82
272.666	3.83
273.04	3.85
273.413	3.8
273.787	3.81
274.16	3.82
274.533	3.86
274.906	3.84
275.279	3.85
275.653	3.84
276.026	3.81
276.399	3.77
276.772	3.76
277.145	3.8
277.518	3.83
277.891	3.84
278.263	3.84
278.636	3.86
279.009	3.88
279.382	3.85
279.755	3.81
280.127	3.82
280.5	3.81
280.872	3.8
281.245	3.91
281.617	3.92
281.99	3.95
282.362	3.97
282.735	3.96
283.107	3.97
283.479	3.99
283.852	4
284.224	4.03
284.596	4.02
284.968	3.91
285.34	3.91
285.713	3.88
286.085	3.81
286.457	3.81
286.829	3.8
287.201	3.8
287.572	3.87
287.944	3.88
288.316	3.91
288.688	3.96
289.06	3.96
289.431	3.97
289.803	3.97
290.175	4
290.546	4.01
290.918	4.03
291.289	4.01
291.661	4.05
292.032	4.02
292.403	4.05
292.775	4.13
293.146	4.15
293.517	4.19
293.889	4.28
294.26	4.28
294.631	4.31
295.002	4.35
295.373	4.39
295.744	4.42
296.115	4.43
296.486	4.4
296.857	4.42
297.228	4.43
297.599	4.45
297.97	4.47
298.34	4.48
298.711	4.45
299.082	4.46
299.452	4.49
299.823	4.55
300.194	4.59
300.564	4.6
300.935	4.63
301.305	4.64
301.676	4.65
302.046	4.68
302.416	4.7
302.787	4.74
303.157	4.69
303.527	4.74
303.897	4.78
304.267	4.81
304.637	4.86
305.008	4.91
305.378	4.95
305.748	4.99
306.117	5.08
306.487	5.18
306.857	5.25
307.227	5.3
307.597	5.32
307.967	5.37
308.336	5.41
308.706	5.48
309.076	5.51
309.445	5.54
309.815	5.48
310.184	5.51
310.554	5.5
310.923	5.57
311.293	5.63
311.662	5.67
312.031	5.69
312.401	5.73
312.77	5.72
313.139	5.75
313.508	5.83
313.877	5.82
314.246	5.85
314.616	5.86
314.985	5.85
315.353	5.9
315.722	5.95
316.091	6.01
316.46	6.04
316.829	6.11
317.198	6.17
317.567	6.36
317.935	6.4
318.304	6.51
318.672	6.57
319.041	6.62
319.41	6.69
319.778	6.76
320.147	6.82
320.515	6.86
320.883	6.9
321.252	6.89
321.62	6.97
321.988	7.05
322.357	7.09
322.725	7.2
323.093	7.24
323.461	7.28
323.829	7.31
324.197	7.34
324.565	7.37
324.933	7.41
325.301	7.44
325.669	7.48
326.037	7.51
326.405	7.51
326.772	7.56
327.14	7.58
327.508	7.61
327.875	7.66
328.243	7.7
328.61	7.68
328.978	7.74
329.346	7.78
329.713	7.79
330.08	7.84
330.448	7.86
330.815	7.87
331.182	7.9
331.55	7.94
331.917	7.98
332.284	8.02
332.651	8.07
333.018	8.09
333.385	8.13
333.752	8.19
334.119	8.24
334.486	8.28
334.853	8.3
335.22	8.33
335.587	8.35
335.954	8.4
336.32	8.44
336.687	8.47
337.054	8.48
337.42	8.51
337.787	8.53
338.153	8.57
338.52	8.65
338.886	8.71
339.253	8.72
339.619	8.75
339.986	8.76
340.352	8.78
340.718	8.83
341.084	8.85
341.451	8.87
341.817	8.88
342.183	8.9
342.549	8.94
342.915	8.96
343.281	9
343.647	9.03
344.013	9.06
344.379	9.09
344.745	9.12
345.11	9.13
345.476	9.17
345.842	9.2
346.208	9.2
346.573	9.21
346.939	9.23
347.304	9.23
347.67	9.25
348.035	9.28
348.401	9.28
348.766	9.31
349.132	9.31
349.497	9.34
349.862	9.35
350.228	9.38
350.593	9.39
350.958	9.39
351.323	9.38
351.688	9.39
352.053	9.38
352.418	9.4
352.783	9.39
353.148	9.38
353.513	9.37
353.878	9.37
354.243	9.36
354.608	9.34
354.972	9.33
355.337	9.33
355.702	9.3
356.066	9.29
356.431	9.27
356.795	9.26
357.16	9.23
357.524	9.21
357.889	9.19
358.253	9.18
358.618	9.16
358.982	9.16
359.346	9.14
359.71	9.11
360.075	9.09
360.439	9.08
360.803	9.04
361.167	9.01
361.531	9.01
361.895	8.99
362.259	8.96
362.623	8.94
362.987	8.91
363.351	8.89
363.714	8.86
364.078	8.83
364.442	8.8
364.806	8.78
365.169	8.73
365.533	8.7
365.896	8.66
366.26	8.63
366.623	8.59
366.987	8.55
367.35	8.51
367.714	8.48
368.077	8.44
368.44	8.39
368.803	8.35
369.167	8.3
369.53	8.26
369.893	8.22
370.256	8.18
370.619	8.14
370.982	8.09
371.345	8.02
371.708	7.97
372.071	7.93
372.434	7.88
372.797	7.84
373.159	7.81
373.522	7.77
373.885	7.71
374.247	7.65
374.61	7.61
374.973	7.55
375.335	7.49
375.698	7.45
376.06	7.4
376.423	7.35
376.785	7.3
377.147	7.25
377.51	7.2
377.872	7.16
378.234	7.11
378.596	7.08
378.958	7.04
379.321	7.01
379.683	6.96
380.045	6.91
380.407	6.87
380.769	6.82
381.13	6.79
381.492	6.76
381.854	6.72
382.216	6.68
382.578	6.64
382.939	6.62
383.301	6.57
383.663	6.53
384.024	6.5
384.386	6.47
384.747	6.43
385.109	6.38
385.47	6.35
385.832	6.32
386.193	6.28
386.554	6.23
386.916	6.2
387.277	6.18
387.638	6.16
387.999	6.12
388.36	6.1
388.721	6.07
389.082	6.04
389.443	6.02
389.804	5.99
390.165	5.97
390.526	5.94
390.887	5.92
391.248	5.89
391.609	5.87
391.969	5.84
392.33	5.82
392.691	5.79
393.051	5.77
393.412	5.73
393.772	5.71
394.133	5.68
394.493	5.65
394.854	5.63
395.214	5.59
395.574	5.56
395.935	5.53
396.295	5.49
396.655	5.47
397.015	5.44
397.376	5.41
397.736	5.38
398.096	5.35
398.456	5.33
398.816	5.32
399.176	5.28
399.535	5.26
399.895	5.24
400.255	5.22
400.615	5.19
400.975	5.18
401.334	5.16
401.694	5.13
402.054	5.11
402.413	5.07
402.773	5.05
403.132	5.04
403.492	5.02
403.851	5
404.211	4.99
404.57	4.98
404.929	4.97
405.288	4.96
405.648	4.95
406.007	4.94
406.366	4.93
406.725	4.92
407.084	4.91
407.443	4.9
407.802	4.88
408.161	4.86
408.52	4.85
408.879	4.84
409.238	4.83
409.596	4.82
409.955	4.82
410.314	4.81
410.673	4.8
411.031	4.8
411.39	4.79
411.748	4.79
412.107	4.78
412.465	4.78
412.824	4.8
413.182	4.81
413.54	4.82
413.899	4.84
414.257	4.86
414.615	4.89
414.974	4.92
415.332	4.95
415.69	4.99
416.048	5.01
416.406	5.04
416.764	5.07
417.122	5.1
417.48	5.12
417.838	5.14
418.195	5.16
418.553	5.18
418.911	5.19
419.269	5.18
419.626	5.17
419.984	5.16
420.342	5.13
420.699	5.11
421.057	5.08
421.414	5.06
421.772	5.04
422.129	5.02
422.486	5.01
422.844	5.01
423.201	5
423.558	4.99
423.915	4.98
424.273	4.97
424.63	4.97
424.987	4.96
425.344	4.95
425.701	4.95
426.058	4.94
426.415	4.93
426.772	4.92
427.128	4.91
427.485	4.89
427.842	4.88
428.199	4.86
428.555	4.84
428.912	4.81
429.269	4.78
429.625	4.76
429.982	4.72
430.338	4.69
430.695	4.67
431.051	4.62
431.407	4.6
431.764	4.58
432.12	4.55
432.476	4.54
432.832	4.53
433.189	4.53
433.545	4.53
433.901	4.55
434.257	4.57
434.613	4.6
434.969	4.62
435.325	4.65
435.681	4.7
436.036	4.71
436.392	4.74
436.748	4.75
437.104	4.75
437.459	4.77
437.815	4.79
438.171	4.81
438.526	4.83
438.882	4.87
439.237	4.9
439.593	4.94
439.948	4.98
440.304	5.02
440.659	5.04
441.014	5.07
441.369	5.1
441.725	5.11
442.08	5.13
442.435	5.14
442.79	5.14
443.145	5.14
443.5	5.15
443.855	5.14
444.21	5.14
444.565	5.13
444.92	5.11
445.275	5.1
445.629	5.09
445.984	5.08
446.339	5.06
446.693	5.06
447.048	5.03
447.403	5.01
447.757	4.99
448.112	4.96
448.466	4.93
448.82	4.91
449.175	4.89
449.529	4.87
449.883	4.85
450.238	4.82
450.592	4.81
450.946	4.8
451.3	4.79
451.654	4.8
452.008	4.8
452.362	4.8
452.716	4.8
453.07	4.79
453.424	4.79
453.778	4.78
454.132	4.76
454.486	4.74
454.839	4.72
455.193	4.7
455.547	4.68
455.9	4.64
456.254	4.62
456.607	4.59
456.961	4.56
457.314	4.54
457.668	4.53
458.021	4.53
458.375	4.52
458.728	4.53
459.081	4.53
459.434	4.54
459.787	4.55
460.141	4.57
460.494	4.57
460.847	4.58
461.2	4.58
461.553	4.6
461.906	4.61
462.259	4.62
462.611	4.62
462.964	4.63
463.317	4.64
463.67	4.65
464.022	4.66
464.375	4.66
464.728	4.66
465.08	4.67
465.433	4.68
465.785	4.68
466.138	4.67
466.49	4.66
466.843	4.64
467.195	4.63
467.547	4.61
467.899	4.59
468.252	4.56
468.604	4.54
468.956	4.53
469.308	4.52
469.66	4.52
470.012	4.51
470.364	4.52
470.716	4.53
471.068	4.56
471.42	4.59
471.772	4.61
472.123	4.63
472.475	4.65
472.827	4.66
473.178	4.67
473.53	4.68
473.882	4.7
474.233	4.72
474.585	4.76
474.936	4.83
475.288	4.93
475.639	5.06
475.99	5.21
476.342	5.37
476.693	5.55
477.044	5.73
477.395	5.92
477.746	6.11
478.097	6.3
478.448	6.49
478.8	6.68
479.15	6.85
479.501	7.01
479.852	7.15
480.203	7.28
480.554	7.41
480.905	7.53
481.255	7.64
481.606	7.76
481.957	7.86
482.307	7.96
482.658	8.06
483.009	8.15
483.359	8.24
483.709	8.32
484.06	8.4
484.41	8.49
484.761	8.56
485.111	8.64
485.461	8.71
485.811	8.77
486.162	8.83
486.512	8.89
486.862	8.93
487.212	8.96
487.562	8.98
487.912	9
488.262	9
488.612	9
488.961	8.98
489.311	8.94
489.661	8.87
490.011	8.77
490.36	8.66
490.71	8.52
491.06	8.37
491.409	8.22
491.759	8.06
492.108	7.9
492.458	7.74
492.807	7.56
493.157	7.39
493.506	7.23
493.855	7.07
494.204	6.93
494.554	6.79
494.903	6.67
495.252	6.56
495.601	6.45
495.95	6.34
496.299	6.25
496.648	6.17
496.997	6.09
497.346	6.02
497.695	5.95
498.043	5.89
498.392	5.83
498.741	5.78
499.09	5.73
499.438	5.68
499.787	5.65
500.135	5.62
500.484	5.6
500.832	5.6
501.181	5.61
501.529	5.63
501.878	5.67
502.226	5.72
502.574	5.78
502.923	5.84
503.271	5.91
503.619	5.99
503.967	6.06
504.315	6.14
504.663	6.22
505.011	6.3
505.359	6.39
505.707	6.48
506.055	6.57
506.403	6.67
506.751	6.76
507.098	6.87
507.446	6.98
507.794	7.1
508.141	7.23
508.489	7.37
508.837	7.52
509.184	7.67
509.531	7.82
509.879	7.97
510.226	8.15
510.574	8.32
510.921	8.51
511.268	8.7
511.616	8.89
511.963	9.09
512.31	9.31
512.657	9.51
513.004	9.72
513.351	9.92
513.698	10.11
514.045	10.3
514.392	10.48
514.739	10.65
515.086	10.82
515.432	10.98
515.779	11.15
516.126	11.33
516.473	11.53
516.819	11.74
517.166	11.96
517.512	12.2
517.859	12.46
518.205	12.74
518.552	13.04
518.898	13.37
519.245	13.73
519.591	14.17
519.937	14.68
520.283	15.27
520.629	15.9
520.976	16.57
521.322	17.27
521.668	17.97
522.014	18.68
522.36	19.37
522.706	20.06
523.052	20.73
523.398	21.38
523.743	21.97
524.089	22.52
524.435	23.03
524.781	23.53
525.126	24.02
525.472	24.51
525.817	24.99
526.163	25.46
526.509	25.91
526.854	26.37
527.199	26.82
527.545	27.26
527.89	27.73
528.235	28.18
528.581	28.61
528.926	29.02
529.271	29.41
529.616	29.78
529.961	30.13
530.306	30.45
530.651	30.75
530.996	31.02
531.341	31.28
531.686	31.51
532.031	31.73
532.376	31.97
532.721	32.24
533.065	32.53
533.41	32.83
533.755	33.1
534.099	33.31
534.444	33.49
534.788	33.64
535.133	33.78
535.477	33.89
535.822	33.97
536.166	34.02
536.51	34.02
536.855	33.95
537.199	33.86
537.543	33.77
537.887	33.7
538.231	33.67
538.576	33.65
538.92	33.61
539.264	33.56
539.608	33.49
539.951	33.41
540.295	33.31
540.639	33.21
540.983	33.08
541.327	32.96
541.671	32.82
542.014	32.71
542.358	32.6
542.701	32.59
543.045	32.62
543.389	32.68
543.732	32.75
544.075	32.85
544.419	32.96
544.762	33.06
545.105	33.2
545.449	33.34
545.792	33.5
546.135	33.66
546.478	33.77
546.821	33.84
547.165	33.84
547.508	33.79
547.851	33.7
548.194	33.57
548.536	33.4
548.879	33.19
549.222	32.97
549.565	32.73
549.908	32.51
550.25	32.3
550.593	32.15
550.936	32.07
551.278	32.04
551.621	32.05
551.963	32.08
552.306	32.13
552.648	32.21
552.991	32.32
553.333	32.44
553.675	32.6
554.017	32.78
554.36	32.99
554.702	33.24
555.044	33.51
555.386	33.83
555.728	34.15
556.07	34.43
556.412	34.72
556.754	34.91
557.096	35.09
557.438	35.28
557.78	35.46
558.121	35.64
558.463	35.81
558.805	36
559.147	36.19
559.488	36.37
559.83	36.54
560.171	36.71
560.513	36.89
560.854	37.06
561.196	37.23
561.537	37.39
561.878	37.54
562.22	37.69
562.561	37.84
562.902	37.99
563.243	38.15
563.584	38.3
563.925	38.45
564.266	38.6
564.607	38.75
564.948	38.9
565.289	39.04
565.63	39.18
565.971	39.31
566.312	39.45
566.653	39.58
566.993	39.72
567.334	39.84
567.675	39.97
568.015	40.1
568.356	40.22
568.696	40.33
569.037	40.44
569.377	40.55
569.718	40.66
570.058	40.76
570.398	40.85
570.739	40.95
571.079	41.04
571.419	41.13
571.759	41.21
572.099	41.3
572.439	41.38
572.779	41.47
573.119	41.55
573.459	41.63
573.799	41.71
574.139	41.8
574.479	41.87
574.819	41.93
575.158	42
575.498	42.07
575.838	42.14
576.177	42.22
576.517	42.3
576.856	42.36
577.196	42.43
577.535	42.5
577.875	42.56
578.214	42.62
578.553	42.68
578.893	42.74
579.232	42.8
579.571	42.86
579.91	42.92
580.25	42.98
580.589	43.05
580.928	43.11
581.267	43.17
581.606	43.23
581.945	43.28
582.283	43.35
582.622	43.42
582.961	43.49
583.3	43.55
583.639	43.63
583.977	43.71
584.316	43.78
584.654	43.84
584.993	43.9
585.332	43.96
585.67	44.02
586.008	44.08
586.347	44.16
586.685	44.21
587.024	44.28
587.362	44.34
587.7	44.41
588.038	44.46
588.376	44.52
588.715	44.58
589.053	44.65
589.391	44.73
589.729	44.81
590.067	44.88
590.404	44.93
590.742	44.99
591.08	45.06
591.418	45.12
591.756	45.18
592.093	45.24
592.431	45.3
592.769	45.34
593.106	45.4
593.444	45.46
593.781	45.5
594.119	45.54
594.456	45.58
594.793	45.63
595.131	45.67
595.468	45.72
595.805	45.77
596.143	45.82
596.48	45.87
596.817	45.92
597.154	45.97
597.491	46.02
597.828	46.07
598.165	46.12
598.502	46.18
598.839	46.23
599.176	46.29
599.512	46.33
599.849	46.37
600.186	46.4
600.523	46.44
600.859	46.48
601.196	46.51
601.532	46.55
601.869	46.59
602.205	46.63
602.542	46.67
602.878	46.7
603.215	46.73
603.551	46.75
603.887	46.78
604.223	46.82
604.56	46.85
604.896	46.87
605.232	46.89
605.568	46.91
605.904	46.94
606.24	46.96
606.576	46.99
606.912	47.02
607.248	47.05
607.583	47.08
607.919	47.1
608.255	47.12
608.591	47.16
608.926	47.19
609.262	47.21
609.597	47.23
609.933	47.26
610.268	47.29
610.604	47.31
610.939	47.33
611.275	47.34
611.61	47.36
611.945	47.36
612.281	47.38
612.616	47.39
612.951	47.39
613.286	47.41
613.621	47.43
613.956	47.45
614.291	47.47
614.626	47.49
614.961	47.52
615.296	47.54
615.631	47.56
615.966	47.57
616.3	47.59
616.635	47.61
616.97	47.62
617.304	47.65
617.639	47.66
617.973	47.68
618.308	47.7
618.642	47.71
618.977	47.75
619.311	47.77
619.646	47.8
619.98	47.83
620.314	47.85
620.648	47.87
620.983	47.87
621.317	47.88
621.651	47.9
621.985	47.92
622.319	47.92
622.653	47.93
622.987	47.93
623.321	47.96
623.655	47.96
623.988	47.97
624.322	47.99
624.656	48
624.99	48.02
625.323	48.03
625.657	48.05
625.99	48.09
626.324	48.11
626.657	48.12
626.991	48.13
627.324	48.14
627.658	48.15
627.991	48.17
628.324	48.18
628.657	48.2
628.991	48.21
629.324	48.23
629.657	48.25
629.99	48.28
630.323	48.29
630.656	48.29
630.989	48.31
631.322	48.33
631.655	48.34
631.987	48.35
632.32	48.38
632.653	48.39
632.986	48.41
633.318	48.42
633.651	48.43
633.984	48.44
634.316	48.46
634.649	48.49
634.981	48.51
635.313	48.54
635.646	48.56
635.978	48.57
636.31	48.6
636.643	48.61
636.975	48.63
637.307	48.66
637.639	48.68
637.971	48.68
638.303	48.71
638.635	48.73
638.967	48.75
639.299	48.76
639.631	48.77
639.963	48.8
640.295	48.83
640.626	48.87
640.958	48.88
641.29	48.89
641.621	48.91
641.953	48.93
642.285	48.94
642.616	48.96
642.948	48.97
643.279	48.99
643.61	48.99
643.942	49.01
644.273	49.03
644.604	49.04
644.936	49.06
645.267	49.06
645.598	49.08
645.929	49.1
646.26	49.11
646.591	49.13
646.922	49.13
647.253	49.15
647.584	49.17
647.915	49.18
648.245	49.2
648.576	49.21
648.907	49.22
649.238	49.22
649.568	49.22
649.899	49.22
650.229	49.24
650.56	49.25
650.89	49.25
651.221	49.25
651.551	49.27
651.882	49.29
652.212	49.28
652.542	49.29
652.872	49.29
653.203	49.29
653.533	49.29
653.863	49.28
654.193	49.28
654.523	49.29
654.853	49.3
655.183	49.31
655.513	49.33
655.843	49.36
656.172	49.38
656.502	49.39
656.832	49.41
657.162	49.41
657.491	49.41
657.821	49.43
658.15	49.46
658.48	49.47
658.809	49.47
659.139	49.48
659.468	49.5
659.798	49.52
660.127	49.53
660.456	49.56
660.785	49.57
661.115	49.57
661.444	49.58
661.773	49.59
662.102	49.6
662.431	49.62
662.76	49.64
663.089	49.66
663.418	49.67
663.747	49.68
664.076	49.69
664.404	49.72
664.733	49.75
665.062	49.76
665.39	49.78
665.719	49.8
666.048	49.83
666.376	49.85
666.705	49.88
667.033	49.89
667.362	49.91
667.69	49.92
668.018	49.93
668.347	49.94
668.675	49.94
669.003	49.94
669.331	49.94
669.659	49.93
669.987	49.95
670.315	49.95
