Data from UWBM122453_Reflection_00013.txt Node
Date: Sun May 02 12:41:53 EDT 2021
User: vgr7
Spectrometer: USB2G7710
Scans to average: 10
Trigger mode: 4
Integration Time (sec): 1.000000E-1
Electric dark correction enabled: true
Boxcar width: 20
XAxis mode: Wavelengths
Number of Pixels in Spectrum: 2048
>>>>>Begin Spectral Data<<<<<
177.721	99.58
178.105	100.93
178.488	101.08
178.871	101.89
179.254	101.14
179.636	99.58
180.019	97.34
180.402	95.34
180.785	91.55
181.168	89.46
181.55	85.94
181.933	113.62
182.316	115.36
182.698	116.72
183.081	116.43
183.463	117.39
183.846	119.91
184.228	122.05
184.611	123.35
184.993	128.79
185.376	132.4
185.758	-105.64
186.14	-53.09
186.522	-18.32
186.904	-5.19
187.287	4.7
187.669	8.57
188.051	10.12
188.433	19.27
188.815	16.91
189.197	16.97
189.579	18.69
189.961	17.84
190.342	12.85
190.724	14.88
191.106	12.69
191.488	14.86
191.869	9.49
192.251	11.65
192.633	9.4
193.014	6.45
193.396	4.81
193.777	10.05
194.159	9.62
194.54	7.04
194.922	6.99
195.303	10.16
195.684	10.91
196.065	11.03
196.447	10.13
196.828	9.65
197.209	13.43
197.59	4.21
197.971	2.74
198.352	4.84
198.733	7.04
199.114	6.34
199.495	6.89
199.876	7.75
200.257	5.01
200.638	5.1
201.018	1.31
201.399	0.81
201.78	-0.55
202.16	-1.98
202.541	-1.23
202.922	-1.04
203.302	-4.28
203.683	-4.41
204.063	-6.21
204.444	-7.04
204.824	-4.63
205.204	-3.69
205.585	4.62
205.965	5.47
206.345	6.6
206.725	2.65
207.106	3.34
207.486	2.52
207.866	2.45
208.246	2.13
208.626	5.03
209.006	10.38
209.386	6.98
209.766	7.65
210.145	7.82
210.525	7.73
210.905	6.83
211.285	9.47
211.664	8.15
212.044	9.84
212.424	9.45
212.803	3.4
213.183	5.47
213.562	5.19
213.942	4.76
214.321	2.79
214.701	2.83
215.08	3.68
215.459	3.53
215.838	3.35
216.218	4.37
216.597	2.74
216.976	0.09
217.355	1.62
217.734	3.42
218.113	3.69
218.492	4.02
218.871	4.33
219.25	4.13
219.629	2.77
220.008	2.92
220.387	2.99
220.766	4.26
221.144	3.57
221.523	5.19
221.902	5.73
222.28	6.4
222.659	6.81
223.037	6.63
223.416	7.1
223.794	8.65
224.173	8
224.551	7.53
224.929	7.41
225.308	8.24
225.686	7.94
226.064	8.12
226.442	8.37
226.821	7.13
227.199	6.85
227.577	6.02
227.955	5.61
228.333	5.84
228.711	6.2
229.089	6.7
229.467	5.99
229.845	6.26
230.222	6.1
230.6	6.2
230.978	6.63
231.356	6.17
231.733	5.79
232.111	5.72
232.488	5.47
232.866	5.43
233.243	4.87
233.621	4.99
233.998	4.75
234.376	5.1
234.753	5.31
235.13	5.41
235.508	5.96
235.885	5.87
236.262	5.86
236.639	6.06
237.016	5.99
237.393	5.89
237.77	5.68
238.147	5.63
238.524	5.67
238.901	5.7
239.278	5.63
239.655	5.62
240.032	5.56
240.409	5.64
240.785	5.56
241.162	5.63
241.539	5.55
241.915	5.54
242.292	5.52
242.668	5.47
243.045	5.45
243.421	5.36
243.798	5.34
244.174	5.3
244.551	5.25
244.927	5.06
245.303	5.06
245.679	5.07
246.056	5.05
246.432	5
246.808	4.8
247.184	4.79
247.56	4.75
247.936	4.77
248.312	4.74
248.688	4.79
249.064	4.77
249.44	4.74
249.815	4.73
250.191	4.66
250.567	4.65
250.943	4.73
251.318	4.75
251.694	4.67
252.069	4.58
252.445	4.55
252.82	4.64
253.196	4.66
253.571	4.61
253.947	4.69
254.322	4.64
254.697	4.79
255.073	4.76
255.448	4.75
255.823	4.71
256.198	4.66
256.573	4.46
256.948	4.46
257.323	4.44
257.698	4.39
258.073	4.39
258.448	4.28
258.823	4.26
259.198	4.25
259.573	4.27
259.948	4.3
260.322	4.3
260.697	4.27
261.072	4.27
261.446	4.25
261.821	4.21
262.195	4.16
262.57	4.14
262.944	4.14
263.319	4.11
263.693	4.13
264.067	4.15
264.442	4.24
264.816	4.23
265.19	4.21
265.564	4.25
265.938	4.21
266.313	4.25
266.687	4.21
267.061	4.23
267.435	4.23
267.809	4.22
268.183	4.21
268.556	4.23
268.93	4.22
269.304	4.19
269.678	4.14
270.051	4.1
270.425	4.11
270.799	4.14
271.172	4.13
271.546	4.13
271.919	4.12
272.293	4.11
272.666	4.12
273.04	4.13
273.413	4.07
273.787	4.05
274.16	4.06
274.533	4.08
274.906	4.07
275.279	4.08
275.653	4.05
276.026	4.03
276.399	4
276.772	3.99
277.145	4
277.518	4.02
277.891	4.03
278.263	4.05
278.636	4.06
279.009	4.08
279.382	4.06
279.755	4.01
280.127	4.03
280.5	4.03
280.872	4.01
281.245	4.14
281.617	4.16
281.99	4.17
282.362	4.2
282.735	4.17
283.107	4.18
283.479	4.2
283.852	4.21
284.224	4.27
284.596	4.26
284.968	4.17
285.34	4.16
285.713	4.14
286.085	4.06
286.457	4.08
286.829	4.07
287.201	4.09
287.572	4.15
287.944	4.17
288.316	4.21
288.688	4.25
289.06	4.27
289.431	4.29
289.803	4.3
290.175	4.33
290.546	4.37
290.918	4.41
291.289	4.39
291.661	4.42
292.032	4.4
292.403	4.45
292.775	4.56
293.146	4.58
293.517	4.62
293.889	4.72
294.26	4.73
294.631	4.77
295.002	4.84
295.373	4.89
295.744	4.92
296.115	4.95
296.486	4.91
296.857	4.95
297.228	4.97
297.599	4.99
297.97	5.01
298.34	5.05
298.711	5.03
299.082	5.04
299.452	5.08
299.823	5.14
300.194	5.18
300.564	5.23
300.935	5.27
301.305	5.28
301.676	5.29
302.046	5.34
302.416	5.36
302.787	5.39
303.157	5.36
303.527	5.39
303.897	5.43
304.267	5.46
304.637	5.5
305.008	5.56
305.378	5.6
305.748	5.63
306.117	5.72
306.487	5.83
306.857	5.93
307.227	5.97
307.597	6
307.967	6.04
308.336	6.08
308.706	6.14
309.076	6.15
309.445	6.17
309.815	6.1
310.184	6.13
310.554	6.11
310.923	6.17
311.293	6.22
311.662	6.25
312.031	6.26
312.401	6.29
312.77	6.3
313.139	6.33
313.508	6.39
313.877	6.36
314.246	6.38
314.616	6.37
314.985	6.37
315.353	6.4
315.722	6.43
316.091	6.45
316.46	6.49
316.829	6.54
317.198	6.58
317.567	6.75
317.935	6.78
318.304	6.86
318.672	6.93
319.041	6.98
319.41	7.03
319.778	7.1
320.147	7.14
320.515	7.18
320.883	7.19
321.252	7.17
321.62	7.22
321.988	7.25
322.357	7.27
322.725	7.36
323.093	7.38
323.461	7.41
323.829	7.44
324.197	7.46
324.565	7.48
324.933	7.51
325.301	7.52
325.669	7.54
326.037	7.58
326.405	7.56
326.772	7.56
327.14	7.59
327.508	7.59
327.875	7.6
328.243	7.62
328.61	7.6
328.978	7.63
329.346	7.65
329.713	7.64
330.08	7.65
330.448	7.65
330.815	7.64
331.182	7.66
331.55	7.68
331.917	7.72
332.284	7.74
332.651	7.76
333.018	7.76
333.385	7.79
333.752	7.81
334.119	7.83
334.486	7.85
334.853	7.83
335.22	7.85
335.587	7.86
335.954	7.88
336.32	7.92
336.687	7.94
337.054	7.95
337.42	7.98
337.787	7.99
338.153	8.04
338.52	8.09
338.886	8.13
339.253	8.15
339.619	8.15
339.986	8.14
340.352	8.15
340.718	8.18
341.084	8.2
341.451	8.21
341.817	8.22
342.183	8.21
342.549	8.25
342.915	8.27
343.281	8.31
343.647	8.33
344.013	8.37
344.379	8.4
344.745	8.43
345.11	8.44
345.476	8.47
345.842	8.49
346.208	8.48
346.573	8.48
346.939	8.5
347.304	8.5
347.67	8.52
348.035	8.55
348.401	8.55
348.766	8.58
349.132	8.59
349.497	8.62
349.862	8.64
350.228	8.66
350.593	8.67
350.958	8.67
351.323	8.66
351.688	8.67
352.053	8.67
352.418	8.68
352.783	8.67
353.148	8.66
353.513	8.65
353.878	8.65
354.243	8.65
354.608	8.65
354.972	8.66
355.337	8.66
355.702	8.64
356.066	8.64
356.431	8.63
356.795	8.63
357.16	8.61
357.524	8.6
357.889	8.59
358.253	8.59
358.618	8.58
358.982	8.58
359.346	8.58
359.71	8.57
360.075	8.57
360.439	8.56
360.803	8.54
361.167	8.52
361.531	8.53
361.895	8.52
362.259	8.51
362.623	8.5
362.987	8.47
363.351	8.46
363.714	8.45
364.078	8.43
364.442	8.41
364.806	8.4
365.169	8.37
365.533	8.35
365.896	8.32
366.26	8.3
366.623	8.27
366.987	8.24
367.35	8.22
367.714	8.2
368.077	8.18
368.44	8.15
368.803	8.12
369.167	8.08
369.53	8.05
369.893	8.02
370.256	7.98
370.619	7.95
370.982	7.91
371.345	7.85
371.708	7.81
372.071	7.77
372.434	7.74
372.797	7.72
373.159	7.69
373.522	7.66
373.885	7.6
374.247	7.55
374.61	7.5
374.973	7.45
375.335	7.4
375.698	7.37
376.06	7.32
376.423	7.28
376.785	7.24
377.147	7.19
377.51	7.15
377.872	7.11
378.234	7.07
378.596	7.04
378.958	7.01
379.321	6.98
379.683	6.93
380.045	6.89
380.407	6.85
380.769	6.81
381.13	6.78
381.492	6.75
381.854	6.72
382.216	6.67
382.578	6.64
382.939	6.62
383.301	6.58
383.663	6.54
384.024	6.5
384.386	6.48
384.747	6.44
385.109	6.39
385.47	6.36
385.832	6.32
386.193	6.29
386.554	6.25
386.916	6.22
387.277	6.18
387.638	6.17
387.999	6.13
388.36	6.1
388.721	6.07
389.082	6.04
389.443	6.01
389.804	5.99
390.165	5.96
390.526	5.93
390.887	5.9
391.248	5.87
391.609	5.84
391.969	5.81
392.33	5.79
392.691	5.76
393.051	5.73
393.412	5.69
393.772	5.66
394.133	5.63
394.493	5.6
394.854	5.57
395.214	5.53
395.574	5.5
395.935	5.47
396.295	5.43
396.655	5.41
397.015	5.38
397.376	5.33
397.736	5.31
398.096	5.27
398.456	5.25
398.816	5.23
399.176	5.19
399.535	5.17
399.895	5.15
400.255	5.12
400.615	5.1
400.975	5.07
401.334	5.04
401.694	5.02
402.054	4.99
402.413	4.95
402.773	4.93
403.132	4.92
403.492	4.9
403.851	4.88
404.211	4.86
404.57	4.85
404.929	4.84
405.288	4.82
405.648	4.81
406.007	4.8
406.366	4.79
406.725	4.79
407.084	4.77
407.443	4.76
407.802	4.74
408.161	4.72
408.52	4.7
408.879	4.69
409.238	4.68
409.596	4.67
409.955	4.67
410.314	4.65
410.673	4.64
411.031	4.63
411.39	4.62
411.748	4.61
412.107	4.61
412.465	4.6
412.824	4.61
413.182	4.61
413.54	4.62
413.899	4.63
414.257	4.65
414.615	4.68
414.974	4.69
415.332	4.72
415.69	4.75
416.048	4.77
416.406	4.8
416.764	4.82
417.122	4.84
417.48	4.86
417.838	4.88
418.195	4.89
418.553	4.9
418.911	4.9
419.269	4.89
419.626	4.88
419.984	4.86
420.342	4.83
420.699	4.8
421.057	4.77
421.414	4.75
421.772	4.73
422.129	4.71
422.486	4.7
422.844	4.69
423.201	4.68
423.558	4.67
423.915	4.65
424.273	4.64
424.63	4.63
424.987	4.62
425.344	4.62
425.701	4.61
426.058	4.6
426.415	4.59
426.772	4.58
427.128	4.57
427.485	4.55
427.842	4.54
428.199	4.52
428.555	4.5
428.912	4.47
429.269	4.44
429.625	4.41
429.982	4.38
430.338	4.35
430.695	4.32
431.051	4.29
431.407	4.26
431.764	4.24
432.12	4.21
432.476	4.2
432.832	4.19
433.189	4.19
433.545	4.2
433.901	4.21
434.257	4.23
434.613	4.26
434.969	4.28
435.325	4.31
435.681	4.35
436.036	4.36
436.392	4.38
436.748	4.39
437.104	4.4
437.459	4.42
437.815	4.43
438.171	4.45
438.526	4.47
438.882	4.5
439.237	4.53
439.593	4.57
439.948	4.6
440.304	4.63
440.659	4.66
441.014	4.67
441.369	4.7
441.725	4.71
442.08	4.73
442.435	4.73
442.79	4.74
443.145	4.73
443.5	4.74
443.855	4.73
444.21	4.72
444.565	4.72
444.92	4.7
445.275	4.69
445.629	4.68
445.984	4.67
446.339	4.65
446.693	4.65
447.048	4.62
447.403	4.6
447.757	4.57
448.112	4.55
448.466	4.52
448.82	4.5
449.175	4.48
449.529	4.46
449.883	4.43
450.238	4.4
450.592	4.4
450.946	4.39
451.3	4.38
451.654	4.39
452.008	4.39
452.362	4.39
452.716	4.39
453.07	4.39
453.424	4.38
453.778	4.37
454.132	4.35
454.486	4.34
454.839	4.32
455.193	4.29
455.547	4.28
455.9	4.25
456.254	4.23
456.607	4.2
456.961	4.17
457.314	4.16
457.668	4.15
458.021	4.15
458.375	4.14
458.728	4.15
459.081	4.15
459.434	4.17
459.787	4.18
460.141	4.19
460.494	4.2
460.847	4.21
461.2	4.22
461.553	4.24
461.906	4.25
462.259	4.26
462.611	4.27
462.964	4.29
463.317	4.3
463.67	4.31
464.022	4.32
464.375	4.32
464.728	4.33
465.08	4.34
465.433	4.35
465.785	4.36
466.138	4.35
466.49	4.34
466.843	4.33
467.195	4.33
467.547	4.31
467.899	4.3
468.252	4.29
468.604	4.27
468.956	4.26
469.308	4.25
469.66	4.26
470.012	4.26
470.364	4.27
470.716	4.28
471.068	4.31
471.42	4.34
471.772	4.36
472.123	4.38
472.475	4.39
472.827	4.41
473.178	4.42
473.53	4.43
473.882	4.44
474.233	4.46
474.585	4.5
474.936	4.56
475.288	4.65
475.639	4.76
475.99	4.9
476.342	5.04
476.693	5.2
477.044	5.36
477.395	5.53
477.746	5.7
478.097	5.86
478.448	6.04
478.8	6.21
479.15	6.37
479.501	6.51
479.852	6.64
480.203	6.75
480.554	6.87
480.905	6.98
481.255	7.09
481.606	7.19
481.957	7.28
482.307	7.37
482.658	7.46
483.009	7.54
483.359	7.63
483.709	7.7
484.06	7.78
484.41	7.86
484.761	7.93
485.111	8
485.461	8.06
485.811	8.12
486.162	8.18
486.512	8.23
486.862	8.27
487.212	8.3
487.562	8.33
487.912	8.34
488.262	8.35
488.612	8.36
488.961	8.34
489.311	8.31
489.661	8.25
490.011	8.17
490.36	8.07
490.71	7.96
491.06	7.83
491.409	7.7
491.759	7.56
492.108	7.43
492.458	7.29
492.807	7.13
493.157	6.98
493.506	6.84
493.855	6.71
494.204	6.59
494.554	6.48
494.903	6.39
495.252	6.29
495.601	6.2
495.95	6.12
496.299	6.05
496.648	5.99
496.997	5.94
497.346	5.89
497.695	5.84
498.043	5.81
498.392	5.78
498.741	5.75
499.09	5.73
499.438	5.71
499.787	5.7
500.135	5.71
500.484	5.72
500.832	5.76
501.181	5.8
501.529	5.85
501.878	5.93
502.226	6.01
502.574	6.11
502.923	6.21
503.271	6.32
503.619	6.43
503.967	6.55
504.315	6.67
504.663	6.79
505.011	6.92
505.359	7.05
505.707	7.18
506.055	7.32
506.403	7.47
506.751	7.62
507.098	7.77
507.446	7.94
507.794	8.11
508.141	8.29
508.489	8.48
508.837	8.67
509.184	8.87
509.531	9.07
509.879	9.28
510.226	9.5
510.574	9.73
510.921	9.97
511.268	10.21
511.616	10.47
511.963	10.73
512.31	11
512.657	11.26
513.004	11.52
513.351	11.78
513.698	12.01
514.045	12.23
514.392	12.45
514.739	12.66
515.086	12.86
515.432	13.06
515.779	13.27
516.126	13.49
516.473	13.72
516.819	13.96
517.166	14.23
517.512	14.51
517.859	14.8
518.205	15.12
518.552	15.46
518.898	15.84
519.245	16.25
519.591	16.75
519.937	17.33
520.283	17.99
520.629	18.72
520.976	19.47
521.322	20.25
521.668	21.04
522.014	21.82
522.36	22.61
522.706	23.38
523.052	24.14
523.398	24.86
523.743	25.52
524.089	26.12
524.435	26.69
524.781	27.25
525.126	27.8
525.472	28.34
525.817	28.87
526.163	29.39
526.509	29.9
526.854	30.4
527.199	30.9
527.545	31.4
527.89	31.91
528.235	32.42
528.581	32.91
528.926	33.37
529.271	33.8
529.616	34.21
529.961	34.58
530.306	34.92
530.651	35.25
530.996	35.56
531.341	35.84
531.686	36.11
532.031	36.35
532.376	36.63
532.721	36.93
533.065	37.27
533.41	37.61
533.755	37.91
534.099	38.16
534.444	38.38
534.788	38.56
535.133	38.73
535.477	38.87
535.822	38.97
536.166	39.04
536.51	39.04
536.855	38.98
537.199	38.89
537.543	38.79
537.887	38.73
538.231	38.71
538.576	38.69
538.92	38.66
539.264	38.62
539.608	38.55
539.951	38.46
540.295	38.36
540.639	38.25
540.983	38.11
541.327	37.98
541.671	37.84
542.014	37.71
542.358	37.61
542.701	37.61
543.045	37.65
543.389	37.74
543.732	37.84
544.075	37.96
544.419	38.1
544.762	38.25
545.105	38.41
545.449	38.59
545.792	38.78
546.135	38.97
546.478	39.11
546.821	39.18
547.165	39.19
547.508	39.13
547.851	39.04
548.194	38.89
548.536	38.69
548.879	38.45
549.222	38.19
549.565	37.92
549.908	37.65
550.25	37.42
550.593	37.24
550.936	37.15
551.278	37.12
551.621	37.12
551.963	37.15
552.306	37.21
552.648	37.3
552.991	37.41
553.333	37.55
553.675	37.73
554.017	37.94
554.36	38.18
554.702	38.45
555.044	38.76
555.386	39.12
555.728	39.47
556.07	39.78
556.412	40.11
556.754	40.31
557.096	40.5
557.438	40.7
557.78	40.9
558.121	41.09
558.463	41.28
558.805	41.47
559.147	41.67
559.488	41.86
559.83	42.06
560.171	42.24
560.513	42.43
560.854	42.61
561.196	42.78
561.537	42.95
561.878	43.12
562.22	43.28
562.561	43.43
562.902	43.6
563.243	43.76
563.584	43.92
563.925	44.08
564.266	44.23
564.607	44.39
564.948	44.54
565.289	44.69
565.63	44.84
565.971	44.99
566.312	45.14
566.653	45.28
566.993	45.41
567.334	45.56
567.675	45.68
568.015	45.81
568.356	45.93
568.696	46.06
569.037	46.17
569.377	46.27
569.718	46.39
570.058	46.49
570.398	46.59
570.739	46.69
571.079	46.78
571.419	46.87
571.759	46.95
572.099	47.04
572.439	47.12
572.779	47.21
573.119	47.27
573.459	47.34
573.799	47.41
574.139	47.49
574.479	47.57
574.819	47.64
575.158	47.72
575.498	47.79
575.838	47.87
576.177	47.94
576.517	48.01
576.856	48.08
577.196	48.13
577.535	48.2
577.875	48.26
578.214	48.33
578.553	48.39
578.893	48.45
579.232	48.51
579.571	48.56
579.91	48.61
580.25	48.67
580.589	48.72
580.928	48.78
581.267	48.83
581.606	48.89
581.945	48.95
582.283	49.02
582.622	49.09
582.961	49.16
583.3	49.24
583.639	49.31
583.977	49.38
584.316	49.46
584.654	49.53
584.993	49.61
585.332	49.68
585.67	49.74
586.008	49.81
586.347	49.89
586.685	49.96
587.024	50.03
587.362	50.11
587.7	50.19
588.038	50.26
588.376	50.33
588.715	50.41
589.053	50.49
589.391	50.57
589.729	50.64
590.067	50.71
590.404	50.78
590.742	50.86
591.08	50.95
591.418	51.01
591.756	51.07
592.093	51.13
592.431	51.19
592.769	51.25
593.106	51.3
593.444	51.36
593.781	51.4
594.119	51.43
594.456	51.49
594.793	51.53
595.131	51.58
595.468	51.63
595.805	51.68
596.143	51.74
596.48	51.79
596.817	51.85
597.154	51.91
597.491	51.97
597.828	52.04
598.165	52.1
598.502	52.15
598.839	52.19
599.176	52.24
599.512	52.29
599.849	52.34
600.186	52.39
600.523	52.44
600.859	52.48
601.196	52.53
601.532	52.58
601.869	52.63
602.205	52.66
602.542	52.69
602.878	52.72
603.215	52.76
603.551	52.79
603.887	52.82
604.223	52.86
604.56	52.88
604.896	52.91
605.232	52.95
605.568	52.98
605.904	53.01
606.24	53.04
606.576	53.07
606.912	53.1
607.248	53.12
607.583	53.16
607.919	53.2
608.255	53.22
608.591	53.26
608.926	53.29
609.262	53.31
609.597	53.33
609.933	53.35
610.268	53.38
610.604	53.39
610.939	53.41
611.275	53.42
611.61	53.43
611.945	53.43
612.281	53.45
612.616	53.46
612.951	53.47
613.286	53.48
613.621	53.49
613.956	53.5
614.291	53.52
614.626	53.53
614.961	53.55
615.296	53.57
615.631	53.59
615.966	53.61
616.3	53.62
616.635	53.65
616.97	53.66
617.304	53.68
617.639	53.71
617.973	53.73
618.308	53.76
618.642	53.77
618.977	53.78
619.311	53.82
619.646	53.86
619.98	53.9
620.314	53.93
620.648	53.97
620.983	54.01
621.317	54.04
621.651	54.07
621.985	54.09
622.319	54.12
622.653	54.14
622.987	54.18
623.321	54.21
623.655	54.22
623.988	54.25
624.322	54.28
624.656	54.3
624.99	54.32
625.323	54.34
625.657	54.37
625.99	54.41
626.324	54.45
626.657	54.46
626.991	54.5
627.324	54.52
627.658	54.55
627.991	54.57
628.324	54.6
628.657	54.63
628.991	54.66
629.324	54.67
629.657	54.71
629.99	54.73
630.323	54.75
630.656	54.78
630.989	54.8
631.322	54.82
631.655	54.84
631.987	54.86
632.32	54.88
632.653	54.92
632.986	54.94
633.318	54.95
633.651	54.97
633.984	54.99
634.316	55
634.649	55.02
634.981	55.04
635.313	55.05
635.646	55.08
635.978	55.09
636.31	55.1
636.643	55.12
636.975	55.14
637.307	55.18
637.639	55.2
637.971	55.22
638.303	55.24
638.635	55.26
638.967	55.28
639.299	55.3
639.631	55.32
639.963	55.33
640.295	55.36
640.626	55.37
640.958	55.4
641.29	55.41
641.621	55.43
641.953	55.43
642.285	55.45
642.616	55.48
642.948	55.48
643.279	55.49
643.61	55.52
643.942	55.54
644.273	55.55
644.604	55.57
644.936	55.58
645.267	55.6
645.598	55.63
645.929	55.65
646.26	55.66
646.591	55.68
646.922	55.71
647.253	55.72
647.584	55.75
647.915	55.76
648.245	55.79
648.576	55.81
648.907	55.82
649.238	55.83
649.568	55.86
649.899	55.88
650.229	55.9
650.56	55.93
650.89	55.94
651.221	55.95
651.551	55.97
651.882	56
652.212	56.02
652.542	56.03
652.872	56.05
653.203	56.07
653.533	56.1
653.863	56.13
654.193	56.14
654.523	56.15
654.853	56.16
655.183	56.18
655.513	56.2
655.843	56.22
656.172	56.24
656.502	56.26
656.832	56.27
657.162	56.28
657.491	56.3
657.821	56.31
658.15	56.32
658.48	56.34
658.809	56.35
659.139	56.37
659.468	56.39
659.798	56.4
660.127	56.43
660.456	56.45
660.785	56.47
661.115	56.49
661.444	56.52
661.773	56.53
662.102	56.54
662.431	56.56
662.76	56.58
663.089	56.57
663.418	56.58
663.747	56.58
664.076	56.58
664.404	56.62
664.733	56.64
665.062	56.65
665.39	56.66
665.719	56.68
666.048	56.68
666.376	56.71
666.705	56.72
667.033	56.72
667.362	56.72
667.69	56.73
668.018	56.75
668.347	56.78
668.675	56.77
669.003	56.8
669.331	56.82
669.659	56.83
669.987	56.86
670.315	56.85
670.643	56.87
